"","AF3","AF4","F3","F4","F7","F8","FC5","FC6","O1","O2","P7","P8","T7","T8","COUNTER","INTERPOLATED","GYROX","GYROY","RAW_CQ","CQ_CMS","CQ_F7","CQ_T7","CQ_O2","CQ_FC6","CQ_AF4","CQ_F3","CQ_P7","CQ_P8","CQ_F4","CQ_AF3","CQ_FC5","CQ_O1","CQ_T8","CQ_F8","CQ_DRL"
"1",4090,309.2,3928,198.936842105263,15.7578947368421,3742,206.526315789474,3848,4222,19.8631578947368,-85.2736842105263,4137,3738,-194.505263157895,103,0,1559,1779,489,4,4,4,4,4,4,4,4,4,4,4,4,4,4,4,4
"2",4094,313.305263157895,3921,200.989473684211,15.2421052631579,3748,200.368421052632,3852,4234,27.5473684210526,-84.7578947368421,4143,3739,-181.684210526316,104,0,1563,1779,461,4,4,4,4,4,4,4,4,4,4,4,4,4,4,4,4
"3",4104,324.578947368421,3916,203.557894736842,16.2736842105263,3759,197.810526315789,3863,4233,35.7578947368421,-87.3157894736842,4153,3737,-167.831578947368,105,0,1559,1775,477,4,4,4,4,4,4,4,4,4,4,4,4,4,4,4,4
"4",4110,333.305263157895,3910,212.789473684211,17.2947368421053,3768,195.757894736842,3873,4229,41.9052631578947,-88.3473684210526,4162,3737,-166.294736842105,106,0,1563,1775,507,4,4,4,4,4,4,4,4,4,4,4,4,4,4,4,4
"5",4108,339.452631578947,3904,220.484210526316,18.3157894736842,3772,192.684210526316,3878,4231,49.0842105263158,-87.3157894736842,4170,3735,-162.705263157895,107,0,1559,1775,489,4,4,4,4,4,4,4,4,4,4,4,4,4,4,4,4
"6",4107,-343.726315789474,3896,220.989473684211,14.7263157894737,3777,189.084210526316,3881,4232,52.1684210526316,-85.2736842105263,4174,3731,-152.452631578947,108,0,1559,1775,461,4,4,4,4,4,4,4,4,4,4,4,4,4,4,4,4
"7",4109,-338.094736842105,3889,217.4,3.95789473684211,3778,181.905263157895,3883,4232,53.1894736842105,-79.1157894736842,4174,3731,-153.989473684211,109,0,1559,1775,477,4,4,4,4,4,4,4,4,4,4,4,4,4,4,4,4
"8",4110,-336.042105263158,3883,219.452631578947,-4.7578947368421,3778,174.726315789474,3884,4235,59.3473684210526,-73.4736842105263,4177,3736,-163.726315789474,110,0,1559,1779,507,4,4,4,4,4,4,4,4,4,4,4,4,4,4,4,4
"9",4109,-336.547368421053,3870,217.915789473684,-3.72631578947368,3776,172.684210526316,3882,4235,59.3473684210526,-75.0105263157895,4177,3738,-165.778947368421,111,0,1559,1771,489,4,4,4,4,4,4,4,4,4,4,4,4,4,4,4,4
"10",4108,-336.547368421053,3857,200.989473684211,-1.16842105263158,3773,169.084210526316,3878,4231,51.6526315789474,-79.1157894736842,4172,3736,-163.221052631579,112,0,1559,1779,461,4,4,4,4,4,4,4,4,4,4,4,4,4,4,4,4
"11",4106,-337.063157894737,3843,184.073684210526,-2.70526315789474,3771,159.863157894737,3878,4229,46.0105263157895,-77.5789473684211,4170,3735,-166.294736842105,113,0,1563,1775,477,4,4,4,4,4,4,4,4,4,4,4,4,4,4,4,4
"12",4103,-341.168421052632,3824,177.4,-4.2421052631579,3768,153.705263157895,3878,4231,50.6315789473684,-74.5052631578947,4170,3741,-169.368421052632,114,0,1559,1775,507,4,4,4,4,4,4,4,4,4,4,4,4,4,4,4,4
"13",4105,-338.094736842105,3812,180.484210526316,-4.2421052631579,3772,154.726315789474,3878,4230,58.3157894736842,-77.0631578947368,4175,3746,-167.831578947368,115,0,1563,1775,489,4,4,4,4,4,4,4,4,4,4,4,4,4,4,4,4
"14",4111,-327.315789473684,3803,186.631578947368,-2.70526315789474,3778,150.115789473684,3883,4229,63.4526315789474,-81.6842105263158,4184,3741,-164.242105263158,116,0,1559,1775,461,4,4,4,4,4,4,4,4,4,4,4,4,4,4,4,4
"15",4111,-325.273684210526,3789,176.894736842105,-1.68421052631579,3775,141.4,3882,4229,66.0105263157895,-80.1368421052632,4185,3737,-165.778947368421,117,0,1563,1775,477,4,4,4,4,4,4,4,4,4,4,4,4,4,4,4,4
"16",4108,-328.863157894737,3771,155.863157894737,-1.16842105263158,3769,140.368421052632,3880,4223,62.4210526315789,-76.5473684210526,4182,3741,-166.294736842105,118,0,1563,1775,507,4,4,4,4,4,4,4,4,4,4,4,4,4,4,4,4
"17",4116,-319.115789473684,3761,154.326315789474,-1.68421052631579,3782,139.863157894737,3888,4217,62.4210526315789,-80.6526315789474,4184,3739,-156.547368421053,119,0,1563,1775,489,4,4,4,4,4,4,4,4,4,4,4,4,4,4,4,4
"18",4128,-305.273684210526,3752,168.684210526316,-2.18947368421053,3797,131.136842105263,3894,4214,68.5789473684211,-89.3684210526316,4188,3735,-149.884210526316,120,0,1559,1771,461,4,4,4,4,4,4,4,4,4,4,4,4,4,4,4,4
"19",4138,-293.473684210526,3739,183.042105263158,-0.652631578947368,3803,124.473684210526,3900,4217,77.8105263157895,-86.2947368421053,4195,3736,-148.347368421053,121,0,1559,1775,477,4,4,4,4,4,4,4,4,4,4,4,4,4,4,4,4
"20",4144,-277.063157894737,3726,189.715789473684,-2.18947368421053,3821,125.494736842105,3914,4221,91.1368421052632,-78.0947368421053,4214,3740,-132.452631578947,122,0,1563,1771,507,4,4,4,4,4,4,4,4,4,4,4,4,4,4,4,4
"21",4144,-269.884210526316,3707,180.484210526316,-9.36842105263158,3834,120.368421052632,3921,4219,95.2421052631579,-80.1368421052632,4222,3740,-127.315789473684,123,0,1559,1771,489,4,4,4,4,4,4,4,4,4,4,4,4,4,4,4,4
"22",4139,-275.010526315789,3684,172.273684210526,-14.5052631578947,3826,111.136842105263,3912,4215,81.4,-82.1894736842105,4205,3738,-146.294736842105,124,0,1563,1771,461,4,4,4,4,4,4,4,4,4,4,4,4,4,4,4,4
"23",4137,-277.063157894737,3661,185.094736842105,-16.0421052631579,3823,106.010526315789,3907,4216,74.2210526315789,-78.6,4201,3736,-148.863157894737,125,0,1559,1771,477,4,4,4,4,4,4,4,4,4,4,4,4,4,4,4,4
"24",4142,-275.010526315789,3646,198.936842105263,-17.0631578947368,3836,104.989473684211,3912,4217,84.4736842105263,-78.6,4214,3737,-133.473684210526,126,0,1563,1775,507,4,4,4,4,4,4,4,4,4,4,4,4,4,4,4,4
"25",4151,-268.347368421053,3633,205.094736842105,-15.5263157894737,3848,102.936842105263,3919,4215,91.1368421052632,-80.6526315789474,4219,3740,-129.368421052632,127,0,1563,1771,489,4,4,4,4,4,4,4,4,4,4,4,4,4,4,4,4
"26",4156,-260.652631578947,3618,212.789473684211,-14.5052631578947,3847,98.3157894736842,3926,4217,89.0842105263158,-80.6526315789474,4219,3739,-128.863157894737,128,0,1563,1775,461,4,4,4,4,4,4,4,4,4,4,4,4,4,4,4,4
"27",4149,-260.136842105263,3601,213.810526315789,-16.5473684210526,3847,92.6842105263158,3926,4218,93.7052631578947,-79.6315789473684,4228,3737,-122.705263157895,0,0,1563,1775,475,4,4,4,4,4,4,4,4,4,4,4,4,4,4,4,4
"28",4144,-262.705263157895,3584,209.715789473684,-17.0631578947368,3850,92.1684210526316,3925,4218,102.936842105263,-78.6,4232,3738,-119.631578947368,1,0,1559,1771,444,4,4,4,4,4,4,4,4,4,4,4,4,4,4,4,4
"29",4147,-260.652631578947,3569,215.347368421053,-17.5789473684211,3851,90.6315789473684,3932,4222,106.010526315789,-82.1894736842105,4231,3736,-116.042105263158,2,0,1559,1775,491,4,4,4,4,4,4,4,4,4,4,4,4,4,4,4,4
"30",4155,-251.936842105263,3557,229.715789473684,-19.1157894736842,3852,86.0105263157895,3942,4229,107.547368421053,-80.6526315789474,4234,3739,-110.4,3,0,1563,1771,504,4,4,4,4,4,4,4,4,4,4,4,4,4,4,4,4
"31",4166,-236.042105263158,3552,252.789473684211,-14.5052631578947,3863,89.6,3957,4245,123.452631578947,-65.7789473684211,4251,3753,-99.6315789473684,4,0,1555,1779,495,4,4,4,4,4,4,4,4,4,4,4,4,4,4,4,4
"32",4174,-223.726315789474,3545,275.347368421053,-9.88421052631579,3872,93.7052631578947,3974,4254,145.494736842105,-59.6315789473684,4274,3755,-80.1368421052632,5,0,1563,1775,506,4,4,4,4,4,4,4,4,4,4,4,4,4,4,4,4
"33",4173,-226.294736842105,3528,273.305263157895,-13.4736842105263,3863,83.4526315789474,3973,4244,144.989473684211,-71.4210526315789,4276,3743,-76.5473684210526,6,0,1559,1771,499,4,4,4,4,4,4,4,4,4,4,4,4,4,4,4,4
"34",4163,-236.547368421053,3509,256.378947368421,-17.5789473684211,3842,76.2736842105263,3958,4236,128.578947368421,-76.0421052631579,4258,3746,-87.3157894736842,7,0,1559,1775,416,4,4,4,4,4,4,4,4,4,4,4,4,4,4,4,4
"35",4156,-248.347368421053,3493,247.147368421053,-18.6,3825,77.2947368421053,3947,4246,121.905263157895,-66.8105263157895,4248,3757,-94.5052631578947,8,0,1559,1775,464,4,4,4,4,4,4,4,4,4,4,4,4,4,4,4,4
"36",4149,-259.115789473684,3474,239.968421052632,-25.7789473684211,3809,70.1157894736842,3934,4250,124.473684210526,-64.2421052631579,4247,3755,-105.778947368421,9,0,1563,1775,466,4,4,4,4,4,4,4,4,4,4,4,4,4,4,4,4
"37",4139,-262.705263157895,3456,235.863157894737,-34.5052631578947,3797,59.8631578947368,3926,4239,122.936842105263,-69.8842105263158,4243,3752,-120.652631578947,10,0,1559,1767,507,4,4,4,4,4,4,4,4,4,4,4,4,4,4,4,4
"38",4142,-262.18947368421,3448,240.484210526316,-30.9157894736842,3803,61.9052631578947,3936,4232,119.347368421053,-72.4526315789474,4246,3754,-114.505263157895,11,0,1563,1775,489,4,4,4,4,4,4,4,4,4,4,4,4,4,4,4,4
"39",4152,-255.526315789474,3439,248.684210526316,-20.6526315789474,3814,67.5473684210526,3946,4233,129.6,-71.9368421052632,4262,3753,-88.8631578947368,12,0,1567,1771,461,4,4,4,4,4,4,4,4,4,4,4,4,4,4,4,4
"40",4155,-245.273684210526,3425,254.842105263158,-16.0421052631579,3816,70.1157894736842,3945,4235,140.884210526316,-71.4210526315789,4269,3751,-78.6,13,0,1563,1775,477,4,4,4,4,4,4,4,4,4,4,4,4,4,4,4,4
"41",4157,-244.242105263158,3418,258.431578947368,-16.5473684210526,3815,74.2210526315789,3943,4233,132.684210526316,-67.3157894736842,4264,3754,-88.3473684210526,14,0,1563,1775,507,4,4,4,4,4,4,4,4,4,4,4,4,4,4,4,4
"42",4169,-245.778947368421,3418,263.557894736842,-13.4736842105263,3817,76.2736842105263,3944,4233,126.526315789474,-63.7263157894737,4263,3757,-91.4210526315789,15,0,1563,1775,489,4,4,4,4,4,4,4,4,4,4,4,4,4,4,4,4
"43",4174,-237.578947368421,3414,270.221052631579,-11.4210526315789,3817,78.3157894736842,3944,4234,132.168421052632,-68.8631578947368,4267,3754,-90.9157894736842,16,0,1563,1775,0,4,4,4,4,4,4,4,4,4,4,4,4,4,4,4,4
"44",4173,-229.368421052632,3401,273.305263157895,-15.0105263157895,3818,78.8315789473684,3944,4232,132.684210526316,-73.4736842105263,4266,3752,-97.0631578947368,17,0,1559,1775,0,4,4,4,4,4,4,4,4,4,4,4,4,4,4,4,4
"45",4170,-228.347368421053,3385,266.126315789474,-26.8105263157895,3819,69.6,3945,4234,129.6,-73.4736842105263,4266,3751,-95.0105263157895,18,0,1563,1771,0,4,4,4,4,4,4,4,4,4,4,4,4,4,4,4,4
"46",4160,-236.547368421053,3368,254.842105263158,-37.0631578947368,3816,60.3684210526316,3941,4234,129.6,-77.0631578947368,4266,3752,-85.7789473684211,19,0,1563,1771,0,4,4,4,4,4,4,4,4,4,4,4,4,4,4,4,4
"47",4151,-244.242105263158,3352,249.715789473684,-37.5789473684211,3813,60.3684210526316,3932,4224,123.452631578947,-80.1368421052632,4264,3755,-85.7789473684211,20,0,1559,1779,0,4,4,4,4,4,4,4,4,4,4,4,4,4,4,4,4
"48",4151,-238.6,3339,250.221052631579,-36.5473684210526,3814,63.9578947368421,3925,4215,118.831578947368,-78.6,4261,3752,-93.9894736842105,21,0,1563,1771,0,4,4,4,4,4,4,4,4,4,4,4,4,4,4,4,4
"49",4155,-228.863157894737,3328,250.221052631579,-39.6315789473684,3815,63.9578947368421,3926,4218,124.473684210526,-80.1368421052632,4263,3746,-96.0421052631579,22,0,1559,1775,0,4,4,4,4,4,4,4,4,4,4,4,4,4,4,4,4
"50",4155,-228.863157894737,3318,248.684210526316,-42.1894736842105,3821,65.4947368421053,3928,4219,126.526315789474,-79.6315789473684,4272,3749,-86.2947368421053,23,0,1563,1771,0,4,4,4,4,4,4,4,4,4,4,4,4,4,4,4,4
"51",4155,-227.315789473684,3314,251.757894736842,-41.6842105263158,3828,64.9894736842105,3929,4219,127.042105263158,-70.9157894736842,4279,3756,-77.0631578947368,24,0,1559,1771,0,4,4,4,4,4,4,4,4,4,4,4,4,4,4,4,4
"52",4161,-217.578947368421,3313,259.452631578947,-38.6,3830,62.4210526315789,3930,4222,131.136842105263,-68.3473684210526,4278,3755,-79.1157894736842,25,0,1563,1771,0,4,4,4,4,4,4,4,4,4,4,4,4,4,4,4,4
"53",4171,-210.4,3307,265.610526315789,-32.4526315789474,3831,68.0631578947368,3934,4227,135.242105263158,-77.0631578947368,4280,3750,-79.6315789473684,26,0,1559,1771,0,4,4,4,4,4,4,4,4,4,4,4,4,4,4,4,4
"54",4174,-208.347368421053,3298,268.168421052632,-35.0105263157895,3833,70.1157894736842,3936,4228,139.863157894737,-81.6842105263158,4285,3744,-75.5263157894737,27,0,1559,1771,0,4,4,4,4,4,4,4,4,4,4,4,4,4,4,4,4
"55",4168,-211.936842105263,3289,267.663157894737,-44.2421052631579,3831,62.4210526315789,3931,4221,141.905263157895,-79.6315789473684,4283,3744,-78.6,28,0,1559,1771,0,4,4,4,4,4,4,4,4,4,4,4,4,4,4,4,4
"56",4169,-211.936842105263,3284,267.147368421053,-38.6,3829,64.4736842105263,3927,4216,134.726315789474,-80.1368421052632,4282,3746,-77.0631578947368,29,0,1563,1771,0,4,4,4,4,4,4,4,4,4,4,4,4,4,4,4,4
"57",4171,-209.884210526316,3275,263.557894736842,-27.8315789473684,3830,77.2947368421053,3928,4217,127.042105263158,-81.1684210526316,4287,3745,-74.5052631578947,30,0,1559,1767,0,4,4,4,4,4,4,4,4,4,4,4,4,4,4,4,4
"58",4162,-217.063157894737,3259,253.305263157895,-26.2947368421053,3821,78.3157894736842,3920,4212,124.473684210526,-82.1894736842105,4281,3748,-84.2421052631579,31,0,1559,1771,0,4,4,4,4,4,4,4,4,4,4,4,4,4,4,4,4
"59",4151,-230.4,3246,243.042105263158,-28.3473684210526,3807,74.7263157894737,3909,4203,117.810526315789,-85.7789473684211,4268,3755,-94.5052631578947,32,0,1563,1767,0,4,4,4,4,4,4,4,4,4,4,4,4,4,4,4,4
"60",4144,-240.136842105263,3238,232.273684210526,-28.3473684210526,3803,76.2736842105263,3901,4202,108.578947368421,-87.3157894736842,4261,3754,-98.0947368421053,33,0,1559,1771,0,4,4,4,4,4,4,4,4,4,4,4,4,4,4,4,4
"61",4135,-246.294736842105,3226,222.021052631579,-34.5052631578947,3796,74.7263157894737,3892,4204,109.084210526316,-86.8105263157895,4261,3748,-101.684210526316,34,0,1563,1771,0,4,4,4,4,4,4,4,4,4,4,4,4,4,4,4,4
"62",4132,-249.368421052632,3216,222.021052631579,-31.4210526315789,3789,73.7052631578947,3891,4201,111.136842105263,-87.8315789473684,4262,3747,-104.757894736842,35,0,1559,1771,0,4,4,4,4,4,4,4,4,4,4,4,4,4,4,4,4
"63",4137,-244.757894736842,3218,227.147368421053,-18.6,3792,78.3157894736842,3898,4201,109.6,-88.3473684210526,4265,3746,-102.705263157895,36,0,1559,1775,0,4,4,4,4,4,4,4,4,4,4,4,4,4,4,4,4
"64",4138,-244.242105263158,3219,221.505263157895,-20.1368421052632,3791,80.3684210526316,3898,4204,110.631578947368,-87.8315789473684,4266,3740,-99.1157894736842,37,0,1555,1775,0,4,4,4,4,4,4,4,4,4,4,4,4,4,4,4,4
"65",4136,-251.936842105263,3218,214.842105263158,-26.8105263157895,3780,76.7789473684211,3892,4203,111.652631578947,-90.4,4264,3739,-100.136842105263,38,0,1559,1775,0,4,4,4,4,4,4,4,4,4,4,4,4,4,4,4,4
"66",4138,-258.094736842105,3216,218.936842105263,-20.6526315789474,3775,76.7789473684211,3893,4201,108.578947368421,-94.5052631578947,4263,3744,-106.294736842105,39,0,1559,1775,0,4,4,4,4,4,4,4,4,4,4,4,4,4,4,4,4
"67",4137,-258.094736842105,3208,222.021052631579,-15.0105263157895,3774,82.9368421052632,3894,4202,107.042105263158,-96.5473684210526,4262,3746,-111.936842105263,40,0,1555,1771,0,4,4,4,4,4,4,4,4,4,4,4,4,4,4,4,4
"68",4137,-249.368421052632,3205,219.452631578947,-18.6,3773,89.6,3894,4201,106.010526315789,-95.0105263157895,4263,3744,-106.294736842105,41,0,1555,1775,0,4,4,4,4,4,4,4,4,4,4,4,4,4,4,4,4
"69",4135,-246.294736842105,3204,219.968421052632,-18.6,3775,91.6526315789474,3897,4198,100.368421052632,-93.9894736842105,4264,3743,-103.221052631579,42,0,1559,1771,0,4,4,4,4,4,4,4,4,4,4,4,4,4,4,4,4
"70",4130,-254.505263157895,3195,218.936842105263,-17.5789473684211,3771,87.5473684210526,3893,4195,92.6842105263158,-99.6315789473684,4254,3741,-113.473684210526,43,0,1551,1775,0,4,4,4,4,4,4,4,4,4,4,4,4,4,4,4,4
"71",4121,-263.221052631579,3186,210.736842105263,-24.7578947368421,3759,79.8631578947368,3885,4193,89.0842105263158,-104.242105263158,4243,3736,-129.884210526316,44,0,1559,1771,0,4,4,4,4,4,4,4,4,4,4,4,4,4,4,4,4
"72",4116,-263.221052631579,3186,206.631578947368,-30.4,3754,77.2947368421053,3887,4195,88.5789473684211,-101.684210526316,4245,3737,-133.473684210526,45,0,1555,1771,0,4,4,4,4,4,4,4,4,4,4,4,4,4,4,4,4
"73",4117,-261.684210526316,3188,209.2,-32.4526315789474,3755,83.4526315789474,3894,4199,90.1157894736842,-98.6,4250,3739,-122.705263157895,46,0,1555,1771,0,4,4,4,4,4,4,4,4,4,4,4,4,4,4,4,4
"74",4119,-263.726315789474,3187,213.305263157895,-29.8842105263158,3756,90.6315789473684,3896,4198,92.1684210526316,-101.168421052632,4248,3739,-118.6,47,0,1555,1775,0,4,4,4,4,4,4,4,4,4,4,4,4,4,4,4,4
"75",4121,-262.705263157895,3187,216.378947368421,-25.7789473684211,3763,91.6526315789474,3903,4200,94.7263157894737,-103.726315789474,4251,3739,-119.631578947368,48,0,1555,1771,0,4,4,4,4,4,4,4,4,4,4,4,4,4,4,4,4
"76",4121,-253.473684210526,3190,218.936842105263,-24.7578947368421,3769,91.1368421052632,3912,4201,97.8105263157895,-99.6315789473684,4264,3744,-102.705263157895,49,0,1555,1771,0,4,4,4,4,4,4,4,4,4,4,4,4,4,4,4,4
"77",4121,-245.778947368421,3186,222.536842105263,-28.8631578947368,3774,94.2210526315789,3915,4201,98.8315789473684,-96.5473684210526,4270,3745,-84.7578947368421,50,0,1555,1779,0,4,4,4,4,4,4,4,4,4,4,4,4,4,4,4,4
"78",4113,-253.989473684211,3176,220.484210526316,-31.9368421052632,3771,91.1368421052632,3913,4201,94.2210526315789,-98.6,4259,3739,-101.684210526316,51,0,1555,1771,0,4,4,4,4,4,4,4,4,4,4,4,4,4,4,4,4
"79",4104,-264.242105263158,3168,209.2,-33.9894736842105,3758,78.3157894736842,3910,4192,90.1157894736842,-104.757894736842,4246,3736,-120.652631578947,52,0,1555,1775,0,4,4,4,4,4,4,4,4,4,4,4,4,4,4,4,4
"80",4104,-262.705263157895,3166,203.042105263158,-36.0421052631579,3753,76.7789473684211,3910,4183,94.2210526315789,-109.884210526316,4250,3738,-111.936842105263,53,0,1555,1775,0,4,4,4,4,4,4,4,4,4,4,4,4,4,4,4,4
"81",4104,-260.136842105263,3164,205.610526315789,-36.0421052631579,3757,86.0105263157895,3911,4182,93.1894736842105,-110.915789473684,4254,3738,-108.347368421053,54,0,1555,1771,0,4,4,4,4,4,4,4,4,4,4,4,4,4,4,4,4
"82",4102,-266.810526315789,3162,203.042105263158,-35.0105263157895,3753,85.4947368421053,3910,4184,81.9052631578947,-106.294736842105,4241,3737,-122.705263157895,55,0,1559,1771,0,4,4,4,4,4,4,4,4,4,4,4,4,4,4,4,4
"83",4102,-270.915789473684,3161,198.936842105263,-35.0105263157895,3744,80.3684210526316,3906,4186,80.8842105263158,-103.221052631579,4233,3736,-129.368421052632,56,0,1555,1775,0,4,4,4,4,4,4,4,4,4,4,4,4,4,4,4,4
"84",4105,-264.757894736842,3161,202.536842105263,-34.5052631578947,3754,81.9052631578947,3911,4187,92.1684210526316,-109.884210526316,4245,3737,-119.631578947368,57,0,1559,1771,0,4,4,4,4,4,4,4,4,4,4,4,4,4,4,4,4
"85",4108,-257.063157894737,3162,206.631578947368,-33.4736842105263,3769,62.9368421052632,3924,4185,94.7263157894737,-112.957894736842,4251,3737,-109.884210526316,58,0,1559,1771,0,4,4,4,4,4,4,4,4,4,4,4,4,4,4,4,4
"86",4110,-258.094736842105,3156,211.757894736842,-32.4526315789474,3767,23.9578947368421,3928,4185,90.6315789473684,-110.4,4248,3737,-108.347368421053,59,0,1559,1775,0,4,4,4,4,4,4,4,4,4,4,4,4,4,4,4,4
"87",4114,-258.094736842105,3146,217.915789473684,-31.9368421052632,3761,8.06315789473684,3926,4186,91.1368421052632,-115.010526315789,4250,3737,-112.452631578947,60,0,1559,1767,0,4,4,4,4,4,4,4,4,4,4,4,4,4,4,4,4
"88",4117,-255.526315789474,3142,213.810526315789,-33.4736842105263,3762,16.7789473684211,3926,4184,84.9894736842105,-118.094736842105,4245,3737,-121.168421052632,61,0,1559,1775,0,4,4,4,4,4,4,4,4,4,4,4,4,4,4,4,4
"89",4111,-257.578947368421,3137,203.557894736842,-36.0421052631579,3758,17.2947368421053,3918,4187,76.2736842105263,-111.936842105263,4232,3735,-127.315789473684,62,0,1563,1771,0,4,4,4,4,4,4,4,4,4,4,4,4,4,4,4,4
"90",4102,-260.652631578947,3128,202.021052631579,-33.9894736842105,3750,14.7263157894737,3909,4188,75.7578947368421,-108.347368421053,4232,3735,-127.831578947368,63,0,1559,1771,0,4,4,4,4,4,4,4,4,4,4,4,4,4,4,4,4
"91",4098,-267.315789473684,3124,202.536842105263,-36.0421052631579,3751,16.7789473684211,3910,4184,77.8105263157895,-117.578947368421,4233,3730,-130.4,64,0,1563,1771,480,4,4,4,4,4,4,4,4,4,4,4,4,4,4,4,4
"92",4096,-275.010526315789,3122,195.863157894737,-43.7263157894737,3753,13.1894736842105,3912,4183,73.1894736842105,-123.221052631579,4223,3726,-136.042105263158,65,0,1559,1771,446,4,4,4,4,4,4,4,4,4,4,4,4,4,4,4,4
"93",4091,-276.042105263158,3112,187.147368421053,-44.7578947368421,3749,11.6526315789474,3909,4183,65.4947368421053,-120.136842105263,4214,3727,-137.578947368421,66,0,1563,1775,491,4,4,4,4,4,4,4,4,4,4,4,4,4,4,4,4
"94",4088,-276.547368421053,3108,186.126315789474,-44.7578947368421,3743,14.7263157894737,3907,4174,59.3473684210526,-123.221052631579,4213,3725,-144.757894736842,67,0,1559,1771,504,4,4,4,4,4,4,4,4,4,4,4,4,4,4,4,4
"95",4088,-279.631578947368,3110,188.684210526316,-45.7789473684211,3743,12.6842105263158,3908,4170,58.3157894736842,-131.936842105263,4213,3719,-150.4,68,0,1563,1775,495,4,4,4,4,4,4,4,4,4,4,4,4,4,4,4,4
"96",4092,-276.547368421053,3105,189.2,-37.5789473684211,3752,10.1157894736842,3909,4174,69.0842105263158,-136.042105263158,4216,3721,-140.136842105263,69,0,1563,1771,506,4,4,4,4,4,4,4,4,4,4,4,4,4,4,4,4
"97",4089,-275.526315789474,3099,188.684210526316,-31.4210526315789,3757,13.1894736842105,3911,4173,76.2736842105263,-134.505263157895,4218,3727,-129.884210526316,70,0,1559,1775,499,4,4,4,4,4,4,4,4,4,4,4,4,4,4,4,4
"98",4080,-284.757894736842,3097,187.663157894737,-41.6842105263158,3754,14.2210526315789,3909,4168,69.6,-135.526315789474,4217,3722,-131.421052631579,71,0,1563,1771,416,4,4,4,4,4,4,4,4,4,4,4,4,4,4,4,4
"99",4075,-291.936842105263,3093,185.094736842105,-45.2736842105263,3754,11.6526315789474,3905,4169,62.4210526315789,-135.526315789474,4216,3715,-142.189473684211,72,0,1559,1775,464,4,4,4,4,4,4,4,4,4,4,4,4,4,4,4,4
"100",4076,-291.421052631579,3092,185.610526315789,-37.0631578947368,3757,10.1157894736842,3897,4172,64.9894736842105,-131.936842105263,4214,3717,-159.115789473684,73,0,1559,1771,466,4,4,4,4,4,4,4,4,4,4,4,4,4,4,4,4
"101",4076,-291.936842105263,3094,184.578947368421,-34.5052631578947,3757,13.7052631578947,3893,4172,68.5789473684211,-129.884210526316,4215,3723,-161.168421052632,74,0,1559,1775,507,4,4,4,4,4,4,4,4,4,4,4,4,4,4,4,4
"102",4076,-296.042105263158,3095,176.894736842105,-35.0105263157895,3754,15.2421052631579,3894,4171,63.9578947368421,-132.957894736842,4216,3725,-150.915789473684,75,0,1559,1775,489,4,4,4,4,4,4,4,4,4,4,4,4,4,4,4,4
"103",4075,-299.115789473684,3097,173.305263157895,-33.4736842105263,3753,14.2210526315789,3888,4168,60.3684210526316,-137.063157894737,4211,3723,-153.989473684211,76,0,1555,1775,461,4,4,4,4,4,4,4,4,4,4,4,4,4,4,4,4
"104",4077,-298.094736842105,3109,184.073684210526,-29.3684210526316,3762,19.3473684210526,3888,4173,64.4736842105263,-131.936842105263,4215,3727,-156.042105263158,77,0,1555,1775,477,4,4,4,4,4,4,4,4,4,4,4,4,4,4,4,4
"105",4088,-284.757894736842,3126,197.915789473684,-13.9894736842105,3779,32.1684210526316,3904,4187,82.4210526315789,-115.010526315789,4234,3737,-136.547368421053,78,0,1559,1775,507,4,4,4,4,4,4,4,4,4,4,4,4,4,4,4,4
"106",4095,-272.452631578947,3141,206.126315789474,-0.652631578947368,3791,40.8842105263158,3915,4192,98.3157894736842,-107.315789473684,4250,3738,-124.757894736842,79,0,1555,1771,489,4,4,4,4,4,4,4,4,4,4,4,4,4,4,4,4
"107",4091,-282.705263157895,3150,208.168421052632,-5.77894736842105,3788,37.8105263157895,3909,4185,90.1157894736842,-114.505263157895,4248,3733,-132.452631578947,80,0,1555,1775,461,4,4,4,4,4,4,4,4,4,4,4,4,4,4,4,4
"108",4084,-294.505263157895,3155,196.378947368421,-12.9578947368421,3779,32.1684210526316,3896,4181,76.2736842105263,-119.115789473684,4236,3734,-135.526315789474,81,0,1559,1771,477,4,4,4,4,4,4,4,4,4,4,4,4,4,4,4,4
"109",4079,-294.505263157895,3160,186.126315789474,-12.4526315789474,3771,30.6315789473684,3886,4184,76.7789473684211,-121.168421052632,4231,3735,-133.473684210526,82,0,1555,1775,507,4,4,4,4,4,4,4,4,4,4,4,4,4,4,4,4
"110",4076,-299.115789473684,3166,194.842105263158,-18.0947368421053,3768,29.6,3878,4184,79.8631578947368,-132.452631578947,4234,3729,-136.042105263158,83,0,1559,1775,489,4,4,4,4,4,4,4,4,4,4,4,4,4,4,4,4
"111",4078,-305.778947368421,3173,199.968421052632,-20.1368421052632,3771,31.1368421052632,3879,4182,77.8105263157895,-142.705263157895,4234,3729,-135.010526315789,84,0,1559,1771,461,4,4,4,4,4,4,4,4,4,4,4,4,4,4,4,4
"112",4078,-306.294736842105,3185,190.736842105263,-9.36842105263158,3771,34.2210526315789,3881,4183,76.7789473684211,-140.652631578947,4232,3734,-133.473684210526,85,0,1559,1775,477,4,4,4,4,4,4,4,4,4,4,4,4,4,4,4,4
"113",4067,-315.010526315789,3197,180.989473684211,-7.31578947368421,3763,34.2210526315789,3870,4182,77.2947368421053,-139.631578947368,4232,3727,-142.189473684211,86,0,1559,1775,507,4,4,4,4,4,4,4,4,4,4,4,4,4,4,4,4
"114",4055,-329.368421052632,3208,178.431578947368,-17.0631578947368,3761,30.1157894736842,3864,4174,79.3473684210526,-146.294736842105,4234,3724,-144.757894736842,87,0,1559,1775,489,4,4,4,4,4,4,4,4,4,4,4,4,4,4,4,4
"115",4051,-333.989473684211,3218,175.347368421053,-16.0421052631579,3763,31.6526315789474,3865,4167,76.2736842105263,-149.884210526316,4234,3726,-140.136842105263,88,0,1559,1771,461,4,4,4,4,4,4,4,4,4,4,4,4,4,4,4,4
"116",4045,-338.6,3229,162.536842105263,-15.0105263157895,3755,33.1894736842105,3863,4167,67.0421052631579,-147.315789473684,4230,3724,-142.189473684211,89,0,1555,1779,477,4,4,4,4,4,4,4,4,4,4,4,4,4,4,4,4
"117",4027,344.578947368421,3238,152.789473684211,-19.6315789473684,3754,31.1368421052632,3859,4167,68.0631578947368,-142.705263157895,4231,3720,-141.168421052632,90,0,1563,1771,507,4,4,4,4,4,4,4,4,4,4,4,4,4,4,4,4
"118",4017,339.452631578947,3248,155.863157894737,-18.6,3758,28.5789473684211,3854,4168,71.1368421052632,-141.684210526316,4235,3723,-138.6,91,0,1555,1771,489,4,4,4,4,4,4,4,4,4,4,4,4,4,4,4,4
"119",4018,328.168421052632,3259,149.715789473684,-21.6842105263158,3750,28.5789473684211,3848,4166,62.4210526315789,-144.242105263158,4224,3725,-149.368421052632,92,0,1559,1771,461,4,4,4,4,4,4,4,4,4,4,4,4,4,4,4,4
"120",4017,322.536842105263,3272,135.863157894737,-27.8315789473684,3743,28.0631578947368,3844,4155,57.2947368421053,-150.915789473684,4212,3716,-157.063157894737,93,0,1559,1771,477,4,4,4,4,4,4,4,4,4,4,4,4,4,4,4,4
"121",4017,330.736842105263,3290,144.073684210526,-22.7052631578947,3752,30.1157894736842,3847,4154,63.9578947368421,-152.452631578947,4225,3706,-149.368421052632,94,0,1559,1771,507,4,4,4,4,4,4,4,4,4,4,4,4,4,4,4,4
"122",4019,331.757894736842,3307,153.305263157895,-19.1157894736842,3756,32.6842105263158,3847,4158,64.9894736842105,-148.347368421053,4231,3712,-147.315789473684,95,0,1555,1771,489,4,4,4,4,4,4,4,4,4,4,4,4,4,4,4,4
"123",4014,321.505263157895,3315,144.073684210526,-22.7052631578947,3750,33.7052631578947,3845,4157,59.8631578947368,-147.831578947368,4218,3723,-151.936842105263,96,0,1559,1771,461,4,4,4,4,4,4,4,4,4,4,4,4,4,4,4,4
"124",4006,317.915789473684,3325,139.968421052632,-20.6526315789474,3746,37.8105263157895,3844,4157,61.9052631578947,-149.368421052632,4215,3717,-149.368421052632,97,0,1555,1767,477,4,4,4,4,4,4,4,4,4,4,4,4,4,4,4,4
"125",4004,317.915789473684,3337,140.484210526316,-18.0947368421053,3741,43.4526315789474,3844,4158,63.9578947368421,-147.831578947368,4222,3708,-147.315789473684,98,0,1555,1775,507,4,4,4,4,4,4,4,4,4,4,4,4,4,4,4,4
"126",4005,317.4,3352,144.578947368421,-20.1368421052632,3741,46.5263157894737,3844,4158,60.3684210526316,-148.347368421053,4219,3714,-155.010526315789,99,0,1559,1767,489,4,4,4,4,4,4,4,4,4,4,4,4,4,4,4,4
"127",4005,318.431578947368,3365,153.810526315789,-17.5789473684211,3750,43.9578947368421,3846,4164,60.8842105263158,-149.884210526316,4217,3716,-156.547368421053,100,0,1555,1771,461,4,4,4,4,4,4,4,4,4,4,4,4,4,4,4,4
"128",3999,313.305263157895,3372,148.684210526316,-19.1157894736842,3750,35.7578947368421,3846,4164,64.4736842105263,-147.831578947368,4223,3702,-148.347368421053,101,0,1559,1775,477,4,4,4,4,4,4,4,4,4,4,4,4,4,4,4,4
"129",3991,304.578947368421,3376,134.326315789474,-24.2421052631579,3741,29.0842105263158,3842,4153,55.2421052631579,-147.315789473684,4222,3695,-144.757894736842,102,0,1555,1775,507,4,4,4,4,4,4,4,4,4,4,4,4,4,4,4,4
"130",3992,301.505263157895,3388,134.326315789474,-21.6842105263158,3739,31.1368421052632,3840,4150,43.9578947368421,-151.936842105263,4214,3704,-149.368421052632,103,0,1559,1775,489,4,4,4,4,4,4,4,4,4,4,4,4,4,4,4,4
"131",4000,302.021052631579,3406,139.452631578947,-17.5789473684211,3742,32.6842105263158,3844,4154,51.1368421052632,-149.884210526316,4220,3710,-150.915789473684,104,0,1555,1775,461,4,4,4,4,4,4,4,4,4,4,4,4,4,4,4,4
"132",4002,304.073684210526,3421,137.4,-16.0421052631579,3744,32.6842105263158,3848,4155,59.3473684210526,-141.168421052632,4231,3712,-147.315789473684,105,0,1559,1779,477,4,4,4,4,4,4,4,4,4,4,4,4,4,4,4,4
"133",3997,305.610526315789,3428,137.915789473684,-15.0105263157895,3745,38.8315789473684,3847,4152,50.6315789473684,-138.6,4226,3717,-146.810526315789,106,0,1555,1775,507,4,4,4,4,4,4,4,4,4,4,4,4,4,4,4,4
"134",3997,302.536842105263,3435,137.915789473684,-9.88421052631579,3746,43.9578947368421,3847,4151,45.4947368421053,-138.094736842105,4214,3720,-150.915789473684,107,0,1559,1779,489,4,4,4,4,4,4,4,4,4,4,4,4,4,4,4,4
"135",4004,299.452631578947,3451,137.4,-3.72631578947368,3748,45.4947368421053,3850,4156,52.1684210526316,-129.884210526316,4218,3719,-150.4,108,0,1555,1771,461,4,4,4,4,4,4,4,4,4,4,4,4,4,4,4,4
"136",4006,295.863157894737,3465,136.378947368421,0.884210526315789,3746,47.5473684210526,3849,4159,53.7052631578947,-125.778947368421,4223,3719,-149.368421052632,109,0,1555,1775,477,4,4,4,4,4,4,4,4,4,4,4,4,4,4,4,4
"137",3999,288.168421052632,3465,128.168421052632,-4.7578947368421,3732,47.5473684210526,3845,4154,47.0421052631579,-127.831578947368,4209,3723,-158.094736842105,110,0,1559,1775,507,4,4,4,4,4,4,4,4,4,4,4,4,4,4,4,4
"138",3992,279.968421052632,3463,123.557894736842,-12.9578947368421,3720,41.9052631578947,3844,4154,39.8631578947368,-128.863157894737,4198,3724,-165.273684210526,111,0,1559,1775,489,4,4,4,4,4,4,4,4,4,4,4,4,4,4,4,4
"139",3991,274.326315789474,3470,123.557894736842,-9.36842105263158,3712,35.7578947368421,3843,4153,33.7052631578947,-129.884210526316,4197,3718,-165.273684210526,112,0,1559,1771,461,4,4,4,4,4,4,4,4,4,4,4,4,4,4,4,4
"140",3991,271.757894736842,3477,123.042105263158,-3.22105263157895,3703,33.7052631578947,3843,4144,32.1684210526316,-137.063157894737,4194,3712,-166.294736842105,113,0,1555,1771,477,4,4,4,4,4,4,4,4,4,4,4,4,4,4,4,4
"141",3991,269.2,3477,126.126315789474,-3.72631578947368,3690,31.6526315789474,3845,4138,32.6842105263158,-144.757894736842,4192,3711,-166.294736842105,114,0,1559,1771,507,4,4,4,4,4,4,4,4,4,4,4,4,4,4,4,4
"142",3983,257.4,3476,125.094736842105,-9.36842105263158,3674,31.6526315789474,3835,4140,29.0842105263158,-144.757894736842,4186,3714,-170.915789473684,115,0,1559,1771,489,4,4,4,4,4,4,4,4,4,4,4,4,4,4,4,4
"143",3976,240.989473684211,3479,111.252631578947,-16.0421052631579,3661,32.6842105263158,3826,4138,25.4947368421053,-137.578947368421,4181,3709,-183.726315789474,116,0,1559,1771,461,4,4,4,4,4,4,4,4,4,4,4,4,4,4,4,4
"144",3977,235.347368421053,3481,106.631578947368,-16.5473684210526,3660,30.1157894736842,3831,4137,23.9578947368421,-136.547368421053,4181,3699,-185.273684210526,117,0,1563,1775,477,4,4,4,4,4,4,4,4,4,4,4,4,4,4,4,4
"145",3977,238.431578947368,3481,114.842105263158,-7.31578947368421,3661,31.6526315789474,3835,4141,16.2736842105263,-141.684210526316,4177,3702,-178.094736842105,118,0,1559,1771,507,4,4,4,4,4,4,4,4,4,4,4,4,4,4,4,4
"146",3974,235.347368421053,3485,115.347368421053,-0.136842105263158,3650,41.4,3831,4139,2.93684210526316,-143.221052631579,4168,3709,-187.831578947368,119,0,1559,1775,489,4,4,4,4,4,4,4,4,4,4,4,4,4,4,4,4
"147",3975,225.094736842105,3493,107.663157894737,-1.68421052631579,3641,46.5263157894737,3830,4136,-4.2421052631579,-144.757894736842,4166,3707,-196.042105263158,120,0,1563,1771,461,4,4,4,4,4,4,4,4,4,4,4,4,4,4,4,4
"148",3976,219.968421052632,3496,106.126315789474,-2.18947368421053,3644,43.4526315789474,3833,4138,2.42105263157895,-148.863157894737,4168,3698,-185.273684210526,121,0,1555,1775,477,4,4,4,4,4,4,4,4,4,4,4,4,4,4,4,4
"149",3975,225.610526315789,3495,114.326315789474,-1.68421052631579,3649,45.4947368421053,3836,4140,12.6842105263158,-147.831578947368,4173,3698,-176.547368421053,122,0,1563,1771,507,4,4,4,4,4,4,4,4,4,4,4,4,4,4,4,4
"150",3977,232.789473684211,3500,122.536842105263,-1.68421052631579,3651,49.6,3845,4137,14.2210526315789,-147.315789473684,4184,3703,-177.063157894737,123,0,1559,1771,489,4,4,4,4,4,4,4,4,4,4,4,4,4,4,4,4
"151",3976,234.326315789474,3507,124.578947368421,0.368421052631579,3655,47.0421052631579,3852,4137,14.2210526315789,-147.831578947368,4188,3707,-169.368421052632,124,0,1559,1771,461,4,4,4,4,4,4,4,4,4,4,4,4,4,4,4,4
"152",3975,232.273684210526,3505,127.663157894737,0.368421052631579,3662,46.0105263157895,3854,4140,18.8315789473684,-146.810526315789,4190,3706,-161.168421052632,125,0,1555,1771,477,4,4,4,4,4,4,4,4,4,4,4,4,4,4,4,4
"153",3975,224.578947368421,3498,123.042105263158,-0.136842105263158,3656,48.5789473684211,3847,4135,15.2421052631579,-148.863157894737,4186,3699,-176.042105263158,126,0,1559,1771,507,4,4,4,4,4,4,4,4,4,4,4,4,4,4,4,4
"154",3972,212.789473684211,3495,113.305263157895,-2.70526315789474,3642,45.4947368421053,3835,4125,-0.652631578947368,-153.473684210526,4170,3695,-195.526315789474,127,0,1559,1771,489,4,4,4,4,4,4,4,4,4,4,4,4,4,4,4,4
"155",3970,211.252631578947,3498,116.378947368421,-4.2421052631579,3639,44.4736842105263,3828,4123,-7.83157894736842,-152.452631578947,4163,3696,-190.915789473684,128,0,1559,1775,461,4,4,4,4,4,4,4,4,4,4,4,4,4,4,4,4
"156",3974,220.989473684211,3498,124.578947368421,6.01052631578947,3652,49.0842105263158,3838,4132,-0.652631578947368,-148.347368421053,4178,3698,-175.526315789474,0,0,1563,1767,480,4,4,4,4,4,4,4,4,4,4,4,4,4,4,4,4
"157",3975,228.168421052632,3497,127.147368421053,14.2210526315789,3664,49.0842105263158,3849,4136,6.01052631578947,-151.421052631579,4188,3700,-171.421052631579,1,0,1555,1771,448,4,4,4,4,4,4,4,4,4,4,4,4,4,4,4,4
"158",3973,232.789473684211,3503,134.326315789474,13.1894736842105,3666,52.1684210526316,3845,4134,8.57894736842105,-155.010526315789,4184,3697,-170.4,2,0,1559,1771,491,4,4,4,4,4,4,4,4,4,4,4,4,4,4,4,4
"159",3985,238.431578947368,3511,143.557894736842,18.8315789473684,3670,63.4526315789474,3837,4137,14.2210526315789,-150.915789473684,4190,3699,-164.242105263158,3,0,1559,1767,504,4,4,4,4,4,4,4,4,4,4,4,4,4,4,4,4
"160",3993,240.989473684211,3514,143.042105263158,23.9578947368421,3672,64.9894736842105,3836,4135,12.6842105263158,-150.915789473684,4199,3701,-159.631578947368,4,0,1559,1771,495,4,4,4,4,4,4,4,4,4,4,4,4,4,4,4,4
"161",3981,235.347368421053,3507,138.431578947368,17.8105263157895,3661,59.3473684210526,3833,4124,-2.18947368421053,-156.042105263158,4187,3699,-168.347368421053,5,0,1555,1771,506,4,4,4,4,4,4,4,4,4,4,4,4,4,4,4,4
"162",3971,223.042105263158,3498,132.789473684211,16.2736842105263,3650,57.8105263157895,3819,4119,-16.5473684210526,-157.578947368421,4165,3697,-182.705263157895,6,0,1559,1771,499,4,4,4,4,4,4,4,4,4,4,4,4,4,4,4,4
"163",3975,218.936842105263,3494,122.536842105263,19.3473684210526,3648,52.1684210526316,3812,4118,-18.6,-161.168421052632,4167,3691,-185.273684210526,7,0,1559,1767,416,4,4,4,4,4,4,4,4,4,4,4,4,4,4,4,4
"164",3975,224.578947368421,3495,121.505263157895,14.2210526315789,3650,44.4736842105263,3817,4113,-15.0105263157895,-167.315789473684,4188,3684,-181.168421052632,8,0,1555,1775,464,4,4,4,4,4,4,4,4,4,4,4,4,4,4,4,4
"165",3971,229.2,3493,136.894736842105,16.7789473684211,3655,46.0105263157895,3823,4107,-17.0631578947368,-169.368421052632,4203,3683,-182.705263157895,9,0,1559,1767,466,4,4,4,4,4,4,4,4,4,4,4,4,4,4,4,4
"166",3973,230.736842105263,3490,155.347368421053,27.5473684210526,3665,48.0631578947368,3827,4107,-14.5052631578947,-170.915789473684,4216,3684,-178.094736842105,10,0,1559,1771,507,4,4,4,4,4,4,4,4,4,4,4,4,4,4,4,4
"167",3974,236.894736842105,3492,161.505263157895,29.6,3677,44.9894736842105,3835,4111,-2.70526315789474,-173.989473684211,4231,3684,-159.631578947368,11,0,1559,1775,489,4,4,4,4,4,4,4,4,4,4,4,4,4,4,4,4
"168",3975,244.073684210526,3491,157.915789473684,29.0842105263158,3683,47.5473684210526,3839,4112,2.93684210526316,-176.547368421053,4237,3689,-149.368421052632,12,0,1559,1775,461,4,4,4,4,4,4,4,4,4,4,4,4,4,4,4,4
"169",3974,241.505263157895,3483,155.863157894737,32.1684210526316,3682,50.1157894736842,3837,4107,-2.70526315789474,-180.136842105263,4232,3692,-152.957894736842,13,0,1559,1775,477,4,4,4,4,4,4,4,4,4,4,4,4,4,4,4,4
"170",3972,243.042105263158,3478,157.4,31.1368421052632,3685,47.5473684210526,3843,4103,-5.27368421052632,-178.6,4234,3689,-151.421052631579,14,0,1555,1779,507,4,4,4,4,4,4,4,4,4,4,4,4,4,4,4,4
"171",3969,246.126315789474,3480,158.936842105263,33.7052631578947,3687,50.6315789473684,3849,4113,-1.68421052631579,-168.863157894737,4238,3690,-149.884210526316,15,0,1563,1775,489,4,4,4,4,4,4,4,4,4,4,4,4,4,4,4,4
"172",3966,239.968421052632,3481,156.378947368421,41.9052631578947,3684,57.8105263157895,3846,4123,-1.16842105263158,-163.221052631579,4234,3695,-156.042105263158,16,0,1559,1775,0,4,4,4,4,4,4,4,4,4,4,4,4,4,4,4,4
"173",3969,240.484210526316,3478,153.305263157895,42.9368421052632,3686,59.8631578947368,3845,4117,-2.70526315789474,-163.221052631579,4236,3694,-153.473684210526,17,0,1559,1775,0,4,4,4,4,4,4,4,4,4,4,4,4,4,4,4,4
"174",3979,257.4,3478,158.431578947368,46.0105263157895,3696,60.3684210526316,3850,4110,-1.16842105263158,-164.757894736842,4248,3693,-145.778947368421,18,0,1559,1775,0,4,4,4,4,4,4,4,4,4,4,4,4,4,4,4,4
"175",3987,266.126315789474,3481,166.631578947368,58.8315789473684,3700,64.4736842105263,3858,4110,0.368421052631579,-166.294736842105,4251,3693,-148.863157894737,19,0,1559,1775,0,4,4,4,4,4,4,4,4,4,4,4,4,4,4,4,4
"176",3996,267.147368421053,3483,171.252631578947,63.4526315789474,3699,66.0105263157895,3861,4115,0.368421052631579,-164.757894736842,4248,3693,-151.421052631579,20,0,1559,1771,0,4,4,4,4,4,4,4,4,4,4,4,4,4,4,4,4
"177",4005,272.789473684211,3481,170.736842105263,61.4,3695,64.9894736842105,3856,4113,-1.16842105263158,-165.778947368421,4249,3695,-145.273684210526,21,0,1559,1775,0,4,4,4,4,4,4,4,4,4,4,4,4,4,4,4,4
"178",4007,272.789473684211,3479,169.715789473684,70.6315789473684,3686,65.4947368421053,3849,4109,-7.31578947368421,-166.810526315789,4246,3697,-149.368421052632,22,0,1559,1771,0,4,4,4,4,4,4,4,4,4,4,4,4,4,4,4,4
"179",4010,270.221052631579,3483,169.2,81.9052631578947,3685,64.4736842105263,3847,4108,-15.0105263157895,-167.831578947368,4237,3697,-161.684210526316,23,0,1559,1775,0,4,4,4,4,4,4,4,4,4,4,4,4,4,4,4,4
"180",4016,276.894736842105,3485,169.2,82.9368421052632,3695,64.9894736842105,3854,4106,-16.5473684210526,-174.505263157895,4234,3697,-164.242105263158,24,0,1555,1771,0,4,4,4,4,4,4,4,4,4,4,4,4,4,4,4,4
"181",4016,280.484210526316,3481,167.663157894737,81.4,3698,62.9368421052632,3860,4100,-15.0105263157895,-181.684210526316,4235,3697,-162.189473684211,25,0,1555,1775,0,4,4,4,4,4,4,4,4,4,4,4,4,4,4,4,4
"182",4010,275.347368421053,3479,160.484210526316,81.9052631578947,3690,52.6842105263158,3853,4095,-17.0631578947368,-181.684210526316,4234,3692,-165.778947368421,26,0,1555,1775,0,4,4,4,4,4,4,4,4,4,4,4,4,4,4,4,4
"183",4005,272.273684210526,3476,153.305263157895,81.4,3685,47.0421052631579,3847,4093,-22.1894736842105,-181.168421052632,4231,3687,-169.884210526316,27,0,1559,1775,0,4,4,4,4,4,4,4,4,4,4,4,4,4,4,4,4
"184",4001,270.736842105263,3467,151.252631578947,81.9052631578947,3684,44.9894736842105,3850,4090,-27.3157894736842,-182.705263157895,4230,3686,-173.989473684211,28,0,1555,1775,0,4,4,4,4,4,4,4,4,4,4,4,4,4,4,4,4
"185",3994,264.578947368421,3460,151.757894736842,81.4,3683,34.7263157894737,3850,4093,-26.2947368421053,-182.189473684211,4230,3685,-177.578947368421,29,0,1555,1779,0,4,4,4,4,4,4,4,4,4,4,4,4,4,4,4,4
"186",3989,262.021052631579,3462,152.273684210526,79.8631578947368,3688,27.5473684210526,3850,4095,-20.6526315789474,-177.063157894737,4235,3686,-170.4,30,0,1563,1775,0,4,4,4,4,4,4,4,4,4,4,4,4,4,4,4,4
"187",3989,267.663157894737,3460,153.305263157895,84.4736842105263,3693,27.5473684210526,3861,4094,-15.0105263157895,-172.452631578947,4246,3691,-160.652631578947,31,0,1555,1775,0,4,4,4,4,4,4,4,4,4,4,4,4,4,4,4,4
"188",3987,269.2,3452,154.326315789474,91.1368421052632,3689,21.4,3864,4098,-12.9578947368421,-172.957894736842,4247,3689,-164.242105263158,32,0,1559,1775,0,4,4,4,4,4,4,4,4,4,4,4,4,4,4,4,4
"189",3985,264.578947368421,3446,154.326315789474,92.6842105263158,3683,15.7578947368421,3859,4105,-14.5052631578947,-172.957894736842,4241,3682,-170.915789473684,33,0,1559,1775,0,4,4,4,4,4,4,4,4,4,4,4,4,4,4,4,4
"190",3986,266.631578947368,3447,154.842105263158,91.1368421052632,3684,16.2736842105263,3861,4104,-11.9368421052632,-171.421052631579,4244,3687,-167.315789473684,34,0,1559,1775,0,4,4,4,4,4,4,4,4,4,4,4,4,4,4,4,4
"191",3986,273.305263157895,3448,156.378947368421,92.6842105263158,3686,14.2210526315789,3865,4097,-3.22105263157895,-175.526315789474,4250,3694,-162.705263157895,35,0,1559,1775,0,4,4,4,4,4,4,4,4,4,4,4,4,4,4,4,4
"192",3985,275.347368421053,3445,157.915789473684,93.1894736842105,3685,11.6526315789474,3865,4097,-0.136842105263158,-182.189473684211,4250,3689,-164.242105263158,36,0,1563,1775,0,4,4,4,4,4,4,4,4,4,4,4,4,4,4,4,4
"193",3982,272.273684210526,3439,157.915789473684,92.6842105263158,3683,8.06315789473684,3865,4097,-0.136842105263158,-183.221052631579,4248,3679,-165.778947368421,37,0,1559,1771,0,4,4,4,4,4,4,4,4,4,4,4,4,4,4,4,4
"194",3974,271.252631578947,3434,156.378947368421,91.6526315789474,3686,2.93684210526316,3866,4094,2.42105263157895,-180.652631578947,4249,3679,-168.347368421053,38,0,1559,1779,0,4,4,4,4,4,4,4,4,4,4,4,4,4,4,4,4
"195",3976,272.789473684211,3434,155.863157894737,92.1684210526316,3693,1.90526315789474,3867,4098,3.95789473684211,-178.6,4251,3683,-169.884210526316,39,0,1563,1771,0,4,4,4,4,4,4,4,4,4,4,4,4,4,4,4,4
"196",3982,274.326315789474,3434,154.326315789474,93.1894736842105,3692,1.4,3865,4105,8.06315789473684,-180.652631578947,4250,3676,-169.368421052632,40,0,1559,1775,0,4,4,4,4,4,4,4,4,4,4,4,4,4,4,4,4
"197",3977,272.273684210526,3431,153.810526315789,94.2210526315789,3684,-1.68421052631579,3867,4104,14.2210526315789,-181.168421052632,4248,3670,-168.347368421053,41,0,1559,1775,0,4,4,4,4,4,4,4,4,4,4,4,4,4,4,4,4
"198",3973,273.305263157895,3431,152.789473684211,95.7578947368421,3687,0.884210526315789,3876,4102,12.1684210526316,-176.547368421053,4253,3678,-168.863157894737,42,0,1563,1771,0,4,4,4,4,4,4,4,4,4,4,4,4,4,4,4,4
"199",3979,283.042105263158,3435,154.842105263158,95.2421052631579,3696,6.01052631578947,3879,4104,12.6842105263158,-176.547368421053,4263,3685,-165.273684210526,43,0,1563,1771,0,4,4,4,4,4,4,4,4,4,4,4,4,4,4,4,4
"200",3986,290.221052631579,3435,164.073684210526,98.8315789473684,3703,4.47368421052632,3879,4105,26.5263157894737,-180.136842105263,4266,3677,-158.6,44,0,1555,1775,0,4,4,4,4,4,4,4,4,4,4,4,4,4,4,4,4
"201",3988,289.715789473684,3434,172.273684210526,107.042105263158,3707,3.45263157894737,3888,4103,33.1894736842105,-175.010526315789,4268,3678,-156.547368421053,45,0,1563,1775,0,4,4,4,4,4,4,4,4,4,4,4,4,4,4,4,4
"202",3987,288.684210526316,3435,172.789473684211,109.6,3708,4.47368421052632,3896,4105,29.0842105263158,-167.831578947368,4276,3687,-153.989473684211,46,0,1563,1771,0,4,4,4,4,4,4,4,4,4,4,4,4,4,4,4,4
"203",3983,291.757894736842,3434,172.273684210526,106.526315789474,3710,3.45263157894737,3894,4106,35.7578947368421,-170.4,4282,3684,-148.863157894737,47,0,1559,1779,0,4,4,4,4,4,4,4,4,4,4,4,4,4,4,4,4
"204",3982,296.378947368421,3431,174.842105263158,106.010526315789,3718,0.884210526315789,3895,4107,47.5473684210526,-178.094736842105,4282,3680,-146.294736842105,48,0,1563,1775,0,4,4,4,4,4,4,4,4,4,4,4,4,4,4,4,4
"205",3985,296.378947368421,3429,172.789473684211,107.042105263158,3724,0.884210526315789,3896,4107,48.5789473684211,-175.010526315789,4283,3682,-147.831578947368,49,0,1559,1775,0,4,4,4,4,4,4,4,4,4,4,4,4,4,4,4,4
"206",3984,296.378947368421,3430,168.684210526316,106.526315789474,3723,2.93684210526316,3894,4106,43.9578947368421,-165.778947368421,4289,3682,-145.778947368421,50,0,1559,1775,0,4,4,4,4,4,4,4,4,4,4,4,4,4,4,4,4
"207",3987,301.505263157895,3431,169.2,109.084210526316,3727,4.47368421052632,3902,4106,45.4947368421053,-165.778947368421,4294,3681,-143.726315789474,51,0,1559,1775,0,4,4,4,4,4,4,4,4,4,4,4,4,4,4,4,4
"208",3988,305.610526315789,3428,170.221052631579,109.084210526316,3730,1.90526315789474,3911,4113,54.7263157894737,-171.936842105263,4293,3681,-147.831578947368,52,0,1559,1771,0,4,4,4,4,4,4,4,4,4,4,4,4,4,4,4,4
"209",3979,302.536842105263,3422,168.684210526316,105.494736842105,3726,-1.16842105263158,3904,4114,61.4,-171.421052631579,4293,3681,-148.863157894737,53,0,1555,1775,0,4,4,4,4,4,4,4,4,4,4,4,4,4,4,4,4
"210",3977,302.536842105263,3423,167.663157894737,103.452631578947,3723,-0.136842105263158,3895,4110,58.3157894736842,-168.347368421053,4293,3682,-144.757894736842,54,0,1563,1775,0,4,4,4,4,4,4,4,4,4,4,4,4,4,4,4,4
"211",3989,306.126315789474,3432,170.736842105263,107.042105263158,3728,3.45263157894737,3902,4115,57.8105263157895,-168.347368421053,4294,3680,-141.168421052632,55,0,1559,1771,0,4,4,4,4,4,4,4,4,4,4,4,4,4,4,4,4
"212",3995,306.631578947368,3441,172.273684210526,111.136842105263,3735,7.54736842105263,3911,4121,63.4526315789474,-167.831578947368,4302,3682,-137.063157894737,56,0,1555,1775,0,4,4,4,4,4,4,4,4,4,4,4,4,4,4,4,4
"213",3989,306.126315789474,3445,171.252631578947,109.6,3737,13.1894736842105,3911,4112,65.4947368421053,-167.315789473684,4311,3691,-131.936842105263,57,0,1559,1775,0,4,4,4,4,4,4,4,4,4,4,4,4,4,4,4,4
"214",3987,308.168421052632,3447,170.736842105263,108.063157894737,3737,12.6842105263158,3910,4109,68.5789473684211,-167.315789473684,4312,3695,-134.505263157895,58,0,1559,1771,0,4,4,4,4,4,4,4,4,4,4,4,4,4,4,4,4
"215",3989,309.2,3452,171.757894736842,108.063157894737,3737,6.52631578947368,3912,4121,75.7578947368421,-166.294736842105,4310,3688,-138.094736842105,59,0,1559,1771,0,4,4,4,4,4,4,4,4,4,4,4,4,4,4,4,4
"216",3985,304.578947368421,3462,171.252631578947,107.042105263158,3732,3.45263157894737,3910,4122,78.3157894736842,-164.242105263158,4312,3686,-137.063157894737,60,0,1555,1775,0,4,4,4,4,4,4,4,4,4,4,4,4,4,4,4,4
"217",3979,298.936842105263,3468,169.2,106.010526315789,3727,-2.18947368421053,3898,4114,73.7052631578947,-163.221052631579,4310,3692,-136.042105263158,61,0,1559,1771,0,4,4,4,4,4,4,4,4,4,4,4,4,4,4,4,4
"218",3983,302.536842105263,3474,167.663157894737,103.957894736842,3733,-12.9578947368421,3894,4116,73.1894736842105,-163.726315789474,4310,3691,-135.010526315789,62,0,1559,1775,0,4,4,4,4,4,4,4,4,4,4,4,4,4,4,4,4
"219",3989,307.147368421053,3486,169.715789473684,106.010526315789,3741,-22.7052631578947,3903,4117,76.2736842105263,-164.757894736842,4314,3690,-140.136842105263,63,0,1559,1771,0,4,4,4,4,4,4,4,4,4,4,4,4,4,4,4,4
"220",3985,297.915789473684,3498,169.2,108.063157894737,3739,-29.8842105263158,3899,4110,69.6,-166.294736842105,4313,3692,-147.315789473684,64,0,1559,1771,480,4,4,4,4,4,4,4,4,4,4,4,4,4,4,4,4
"221",3978,287.147368421053,3507,160.484210526316,100.884210526316,3734,-32.9578947368421,3893,4104,60.8842105263158,-167.315789473684,4311,3688,-141.684210526316,65,0,1559,1771,448,4,4,4,4,4,4,4,4,4,4,4,4,4,4,4,4
"222",3976,290.221052631579,3515,156.378947368421,92.6842105263158,3736,-31.9368421052632,3897,4110,68.0631578947368,-166.294736842105,4319,3683,-131.936842105263,66,0,1563,1775,491,4,4,4,4,4,4,4,4,4,4,4,4,4,4,4,4
"223",3976,293.810526315789,3523,158.936842105263,98.8315789473684,3741,-31.9368421052632,3898,4118,79.8631578947368,-166.294736842105,4326,3683,-131.421052631579,67,0,1559,1771,504,4,4,4,4,4,4,4,4,4,4,4,4,4,4,4,4
"224",3980,289.715789473684,3530,158.431578947368,107.042105263158,3736,-28.8631578947368,3894,4120,78.8315789473684,-169.368421052632,4324,3683,-136.042105263158,68,0,1559,1775,495,4,4,4,4,4,4,4,4,4,4,4,4,4,4,4,4
"225",3984,290.736842105263,3541,156.378947368421,106.526315789474,3738,-19.6315789473684,3896,4118,76.2736842105263,-169.368421052632,4326,3685,-135.526315789474,69,0,1563,1771,506,4,4,4,4,4,4,4,4,4,4,4,4,4,4,4,4
"226",3986,297.915789473684,3554,157.915789473684,107.042105263158,3748,-17.0631578947368,3901,4119,81.4,-164.757894736842,4335,3694,-131.936842105263,70,0,1559,1775,499,4,4,4,4,4,4,4,4,4,4,4,4,4,4,4,4
"227",3988,295.863157894737,3565,156.894736842105,110.115789473684,3745,-18.6,3896,4122,80.8842105263158,-163.221052631579,4336,3699,-132.957894736842,71,0,1563,1771,416,4,4,4,4,4,4,4,4,4,4,4,4,4,4,4,4
"228",3987,290.736842105263,3570,154.326315789474,111.136842105263,3739,-16.0421052631579,3891,4119,73.7052631578947,-163.726315789474,4333,3697,-132.957894736842,72,0,1559,1775,464,4,4,4,4,4,4,4,4,4,4,4,4,4,4,4,4
"229",3988,297.4,3577,161.505263157895,110.115789473684,3748,-16.0421052631579,3898,4124,79.3473684210526,-157.063157894737,4338,3696,-124.242105263158,73,0,1563,1775,466,4,4,4,4,4,4,4,4,4,4,4,4,4,4,4,4
"230",3995,308.168421052632,3588,172.273684210526,110.631578947368,3761,-9.88421052631579,3909,4136,93.7052631578947,-148.863157894737,4352,3705,-116.547368421053,74,0,1555,1775,507,4,4,4,4,4,4,4,4,4,4,4,4,4,4,4,4
"231",4002,308.684210526316,3592,173.305263157895,113.705263157895,3759,-2.18947368421053,3909,4140,94.7263157894737,-149.368421052632,4358,3717,-115.526315789474,75,0,1563,1775,489,4,4,4,4,4,4,4,4,4,4,4,4,4,4,4,4
"232",3998,306.631578947368,3590,171.757894736842,113.705263157895,3758,-6.81052631578947,3906,4135,95.2421052631579,-152.452631578947,4359,3727,-109.884210526316,76,0,1559,1771,461,4,4,4,4,4,4,4,4,4,4,4,4,4,4,4,4
"233",3996,311.757894736842,3592,174.326315789474,111.136842105263,3765,-9.88421052631579,3910,4132,113.189473684211,-151.421052631579,4365,3731,-103.726315789474,77,0,1559,1779,477,4,4,4,4,4,4,4,4,4,4,4,4,4,4,4,4
"234",4003,315.863157894737,3593,174.326315789474,112.168421052632,3767,-2.18947368421053,3913,4129,128.063157894737,-150.4,4372,3730,-104.757894736842,78,0,1559,1771,507,4,4,4,4,4,4,4,4,4,4,4,4,4,4,4,4
"235",4005,311.252631578947,3592,171.252631578947,113.189473684211,3762,0.368421052631579,3910,4126,124.989473684211,-150.915789473684,4371,3731,-103.726315789474,79,0,1559,1775,489,4,4,4,4,4,4,4,4,4,4,4,4,4,4,4,4
"236",4003,305.094736842105,3591,169.2,112.168421052632,3754,-2.70526315789474,3908,4131,115.242105263158,-151.936842105263,4364,3739,-107.831578947368,80,0,1559,1775,461,4,4,4,4,4,4,4,4,4,4,4,4,4,4,4,4
"237",4003,303.557894736842,3591,169.715789473684,111.652631578947,3748,0.368421052631579,3907,4131,110.115789473684,-152.957894736842,4360,3740,-118.094736842105,81,0,1559,1775,477,4,4,4,4,4,4,4,4,4,4,4,4,4,4,4,4
"238",4004,304.578947368421,3588,169.715789473684,110.631578947368,3739,1.4,3907,4128,111.136842105263,-153.989473684211,4360,3733,-120.136842105263,82,0,1559,1771,507,4,4,4,4,4,4,4,4,4,4,4,4,4,4,4,4
"239",4002,302.021052631579,3581,169.2,114.726315789474,3730,-0.136842105263158,3908,4134,113.705263157895,-150.915789473684,4360,3736,-117.578947368421,83,0,1555,1775,489,4,4,4,4,4,4,4,4,4,4,4,4,4,4,4,4
"240",4008,297.915789473684,3577,171.252631578947,122.936842105263,3725,0.368421052631579,3908,4132,111.652631578947,-149.884210526316,4361,3741,-118.094736842105,84,0,1563,1775,461,4,4,4,4,4,4,4,4,4,4,4,4,4,4,4,4
"241",4014,297.4,3579,175.347368421053,121.905263157895,3719,0.884210526315789,3909,4119,109.084210526316,-157.063157894737,4362,3735,-117.578947368421,85,0,1559,1771,477,4,4,4,4,4,4,4,4,4,4,4,4,4,4,4,4
"242",4009,294.842105263158,3575,173.810526315789,114.221052631579,3708,-1.16842105263158,3907,4117,107.547368421053,-165.273684210526,4357,3729,-118.6,86,0,1559,1775,507,4,4,4,4,4,4,4,4,4,4,4,4,4,4,4,4
"243",4004,288.684210526316,3573,171.252631578947,110.631578947368,3701,-5.27368421052632,3907,4123,108.063157894737,-164.757894736842,4356,3730,-121.684210526316,87,0,1559,1771,489,4,4,4,4,4,4,4,4,4,4,4,4,4,4,4,4
"244",4005,286.126315789474,3576,173.810526315789,111.136842105263,3700,-8.86315789473684,3909,4120,108.578947368421,-161.684210526316,4359,3733,-120.652631578947,88,0,1559,1771,461,4,4,4,4,4,4,4,4,4,4,4,4,4,4,4,4
"245",4004,283.042105263158,3574,168.684210526316,107.042105263158,3694,-15.0105263157895,3903,4119,98.8315789473684,-162.189473684211,4353,3729,-125.273684210526,89,0,1559,1775,477,4,4,4,4,4,4,4,4,4,4,4,4,4,4,4,4
"246",3999,276.894736842105,3572,160.989473684211,103.452631578947,3687,-16.5473684210526,3893,4122,94.2210526315789,-163.726315789474,4349,3725,-132.452631578947,90,0,1559,1775,507,4,4,4,4,4,4,4,4,4,4,4,4,4,4,4,4
"247",4002,280.484210526316,3582,165.610526315789,106.010526315789,3690,-8.34736842105263,3898,4126,105.494736842105,-162.189473684211,4358,3724,-126.810526315789,91,0,1563,1771,489,4,4,4,4,4,4,4,4,4,4,4,4,4,4,4,4
"248",4006,288.684210526316,3591,171.252631578947,109.6,3694,-1.68421052631579,3908,4129,112.168421052632,-155.526315789474,4367,3724,-119.115789473684,92,0,1555,1775,461,4,4,4,4,4,4,4,4,4,4,4,4,4,4,4,4
"249",4005,288.168421052632,3598,169.2,109.084210526316,3694,-3.72631578947368,3910,4126,108.063157894737,-151.421052631579,4368,3725,-118.6,93,0,1563,1775,477,4,4,4,4,4,4,4,4,4,4,4,4,4,4,4,4
"250",4007,288.684210526316,3605,170.221052631579,110.631578947368,3696,0.884210526315789,3908,4121,108.578947368421,-157.063157894737,4373,3727,-115.526315789474,94,0,1559,1771,507,4,4,4,4,4,4,4,4,4,4,4,4,4,4,4,4
"251",4011,296.894736842105,3607,174.326315789474,112.684210526316,3700,10.6315789473684,3911,4121,112.684210526316,-159.115789473684,4381,3731,-106.294736842105,95,0,1563,1775,489,4,4,4,4,4,4,4,4,4,4,4,4,4,4,4,4
"252",4009,299.968421052632,3613,173.305263157895,113.189473684211,3703,12.6842105263158,3914,4124,113.189473684211,-151.936842105263,4383,3737,-101.684210526316,96,0,1563,1775,461,4,4,4,4,4,4,4,4,4,4,4,4,4,4,4,4
"253",4004,293.305263157895,3619,168.684210526316,110.631578947368,3698,10.6315789473684,3910,4123,106.526315789474,-149.368421052632,4375,3737,-112.452631578947,97,0,1559,1771,477,4,4,4,4,4,4,4,4,4,4,4,4,4,4,4,4
"254",4004,289.715789473684,3619,166.631578947368,109.084210526316,3691,10.6315789473684,3906,4119,92.6842105263158,-154.505263157895,4368,3729,-123.726315789474,98,0,1559,1771,507,4,4,4,4,4,4,4,4,4,4,4,4,4,4,4,4
"255",4013,297.915789473684,3625,169.715789473684,115.757894736842,3697,13.7052631578947,3908,4125,94.2210526315789,-152.452631578947,4373,3728,-114.505263157895,99,0,1563,1775,489,4,4,4,4,4,4,4,4,4,4,4,4,4,4,4,4
"256",4020,306.126315789474,3638,173.810526315789,123.957894736842,3709,20.8842105263158,3912,4135,108.578947368421,-148.347368421053,4383,3735,-102.189473684211,100,0,1559,1771,461,4,4,4,4,4,4,4,4,4,4,4,4,4,4,4,4
"257",4021,308.168421052632,3647,173.810526315789,123.957894736842,3711,32.6842105263158,3919,4135,109.6,-151.936842105263,4387,3737,-104.757894736842,101,0,1563,1775,477,4,4,4,4,4,4,4,4,4,4,4,4,4,4,4,4
"258",4018,309.2,3654,174.842105263158,120.368421052632,3714,45.4947368421053,3929,4133,111.652631578947,-154.505263157895,4394,3735,-100.652631578947,102,0,1559,1771,507,4,4,4,4,4,4,4,4,4,4,4,4,4,4,4,4
"259",4018,315.347368421053,3663,177.4,119.863157894737,3724,57.2947368421053,3931,4137,126.010526315789,-150.4,4406,3736,-83.7263157894737,103,0,1563,1771,489,4,4,4,4,4,4,4,4,4,4,4,4,4,4,4,4
"260",4018,317.4,3669,173.305263157895,120.884210526316,3724,63.4526315789474,3928,4132,123.957894736842,-150.915789473684,4406,3739,-83.2210526315789,104,0,1559,1771,461,4,4,4,4,4,4,4,4,4,4,4,4,4,4,4,4
"261",4013,313.305263157895,3677,168.684210526316,121.905263157895,3715,61.9052631578947,3928,4124,109.6,-158.094736842105,4400,3739,-92.9578947368421,105,0,1563,1771,477,4,4,4,4,4,4,4,4,4,4,4,4,4,4,4,4
"262",4007,311.252631578947,3685,168.684210526316,118.831578947368,3712,62.9368421052632,3926,4130,110.631578947368,-156.547368421053,4399,3736,-95.0105263157895,106,0,1563,1767,507,4,4,4,4,4,4,4,4,4,4,4,4,4,4,4,4
"263",4005,308.684210526316,3691,162.021052631579,112.684210526316,3710,64.4736842105263,3924,4138,108.063157894737,-148.863157894737,4394,3737,-99.1157894736842,107,0,1559,1771,489,4,4,4,4,4,4,4,4,4,4,4,4,4,4,4,4
"264",4006,306.631578947368,3701,154.326315789474,109.6,3708,62.4210526315789,3923,4137,92.6842105263158,-152.957894736842,4387,3735,-101.684210526316,108,0,1563,1771,461,4,4,4,4,4,4,4,4,4,4,4,4,4,4,4,4
"265",4008,311.757894736842,3715,160.989473684211,113.189473684211,3714,66.5263157894737,3924,4136,93.7052631578947,-165.273684210526,4390,3729,-95.5263157894737,109,0,1559,1771,477,4,4,4,4,4,4,4,4,4,4,4,4,4,4,4,4
"266",4014,322.021052631579,3730,170.736842105263,121.4,3725,76.2736842105263,3932,4138,109.6,-166.294736842105,4401,3731,-92.9578947368421,110,0,1559,1771,507,4,4,4,4,4,4,4,4,4,4,4,4,4,4,4,4
"267",4022,329.2,3745,171.252631578947,125.494736842105,3734,79.8631578947368,3943,4135,113.705263157895,-157.578947368421,4409,3738,-89.8842105263158,111,0,1559,1771,489,4,4,4,4,4,4,4,4,4,4,4,4,4,4,4,4
"268",4017,332.273684210526,3754,170.221052631579,123.957894736842,3738,77.8105263157895,3944,4130,110.115789473684,-154.505263157895,4415,3737,-76.5473684210526,112,0,1563,1771,461,4,4,4,4,4,4,4,4,4,4,4,4,4,4,4,4
"269",4007,329.2,3757,171.252631578947,121.905263157895,3738,77.8105263157895,3941,4131,111.652631578947,-157.578947368421,4418,3727,-70.9157894736842,113,0,1559,1771,477,4,4,4,4,4,4,4,4,4,4,4,4,4,4,4,4
"270",4004,327.663157894737,3768,168.684210526316,118.831578947368,3737,75.7578947368421,3945,4136,113.705263157895,-156.042105263158,4414,3715,-75.5263157894737,114,0,1563,1775,507,4,4,4,4,4,4,4,4,4,4,4,4,4,4,4,4
"271",4006,333.810526315789,3782,169.715789473684,118.831578947368,3737,75.2421052631579,3948,4137,113.705263157895,-149.884210526316,4418,3712,-70.9157894736842,115,0,1563,1771,489,4,4,4,4,4,4,4,4,4,4,4,4,4,4,4,4
"272",4003,334.326315789474,3790,169.2,118.831578947368,3738,78.8315789473684,3945,4138,111.652631578947,-146.810526315789,4425,3714,-66.8105263157895,116,0,1559,1775,461,4,4,4,4,4,4,4,4,4,4,4,4,4,4,4,4
"273",3999,325.610526315789,3795,160.989473684211,113.705263157895,3736,79.3473684210526,3944,4138,109.084210526316,-149.368421052632,4421,3710,-74.5052631578947,117,0,1563,1771,477,4,4,4,4,4,4,4,4,4,4,4,4,4,4,4,4
"274",3999,323.557894736842,3803,155.863157894737,110.631578947368,3731,78.3157894736842,3946,4137,110.631578947368,-149.884210526316,4414,3708,-78.6,118,0,1559,1775,507,4,4,4,4,4,4,4,4,4,4,4,4,4,4,4,4
"275",3997,324.578947368421,3811,158.431578947368,112.168421052632,3729,79.3473684210526,3945,4139,110.631578947368,-151.936842105263,4414,3713,-73.4736842105263,119,0,1559,1775,489,4,4,4,4,4,4,4,4,4,4,4,4,4,4,4,4
"276",3991,323.042105263158,3819,156.378947368421,110.631578947368,3727,78.3157894736842,3943,4134,106.010526315789,-160.652631578947,4413,3707,-73.9894736842105,120,0,1559,1775,461,4,4,4,4,4,4,4,4,4,4,4,4,4,4,4,4
"277",3988,329.2,3828,156.894736842105,109.084210526316,3733,76.7789473684211,3953,4123,115.242105263158,-168.347368421053,4429,3696,-62.1894736842105,121,0,1563,1771,477,4,4,4,4,4,4,4,4,4,4,4,4,4,4,4,4
"278",3991,344.578947368421,3838,169.2,111.136842105263,3758,77.8105263157895,3971,4121,137.810526315789,-172.957894736842,4469,3699,-27.3157894736842,122,0,1555,1775,507,4,4,4,4,4,4,4,4,4,4,4,4,4,4,4,4
"279",3989,-337.063157894737,3847,174.842105263158,110.115789473684,3774,77.8105263157895,3980,4122,147.042105263158,-172.452631578947,4495,3698,-9.36842105263158,123,0,1559,1775,489,4,4,4,4,4,4,4,4,4,4,4,4,4,4,4,4
"280",3983,-339.115789473684,3855,169.2,109.084210526316,3770,78.3157894736842,3981,4118,142.421052631579,-168.347368421053,4493,3692,-17.0631578947368,124,0,1559,1771,461,4,4,4,4,4,4,4,4,4,4,4,4,4,4,4,4
"281",3983,-337.578947368421,3861,168.168421052632,109.6,3774,80.3684210526316,3986,4118,147.547368421053,-169.884210526316,4490,3694,-15.0105263157895,125,0,1555,1775,477,4,4,4,4,4,4,4,4,4,4,4,4,4,4,4,4
"282",3984,-332.452631578947,3865,171.252631578947,110.115789473684,3784,80.3684210526316,3993,4123,157.810526315789,-171.421052631579,4498,3699,-1.16842105263158,126,0,1559,1771,507,4,4,4,4,4,4,4,4,4,4,4,4,4,4,4,4
"283",3982,-330.915789473684,3870,170.221052631579,110.631578947368,3786,84.4736842105263,3993,4120,157.810526315789,-168.347368421053,4506,3697,1.4,127,0,1559,1771,489,4,4,4,4,4,4,4,4,4,4,4,4,4,4,4,4
"284",3979,-327.831578947368,3880,171.252631578947,111.652631578947,3785,92.1684210526316,3990,4117,158.315789473684,-173.989473684211,4509,3694,-2.18947368421053,128,0,1559,1775,461,4,4,4,4,4,4,4,4,4,4,4,4,4,4,4,4
"285",3979,-324.757894736842,3891,170.221052631579,113.189473684211,3784,94.2210526315789,3992,4121,161.905263157895,-179.115789473684,4506,3697,-0.136842105263158,0,0,1559,1775,479,4,4,4,4,4,4,4,4,4,4,4,4,4,4,4,4
"286",3976,-332.452631578947,3895,160.484210526316,114.221052631579,3778,92.6842105263158,3991,4120,158.831578947368,-171.421052631579,4496,3699,-3.72631578947368,1,0,1563,1771,448,4,4,4,4,4,4,4,4,4,4,4,4,4,4,4,4
"287",3973,-341.168421052632,3896,153.810526315789,111.136842105263,3773,92.6842105263158,3984,4111,153.705263157895,-170.4,4488,3697,-16.0421052631579,2,0,1555,1775,491,4,4,4,4,4,4,4,4,4,4,4,4,4,4,4,4
"288",3975,-340.136842105263,3902,154.326315789474,111.652631578947,3772,94.7263157894737,3981,4111,152.168421052632,-173.473684210526,4485,3697,-20.6526315789474,3,0,1559,1775,504,4,4,4,4,4,4,4,4,4,4,4,4,4,4,4,4
"289",3981,-336.547368421053,3914,155.863157894737,116.778947368421,3774,98.8315789473684,3987,4122,155.757894736842,-164.757894736842,4488,3701,-18.0947368421053,4,0,1559,1767,495,4,4,4,4,4,4,4,4,4,4,4,4,4,4,4,4
"290",3980,-336.042105263158,3924,163.557894736842,115.757894736842,3778,103.452631578947,3991,4124,164.473684210526,-166.294736842105,4492,3701,-13.9894736842105,5,0,1555,1775,506,4,4,4,4,4,4,4,4,4,4,4,4,4,4,4,4
"291",3973,-336.042105263158,3927,169.2,111.652631578947,3782,105.494736842105,3991,4118,171.652631578947,-179.115789473684,4494,3700,-6.29473684210526,6,0,1559,1775,499,4,4,4,4,4,4,4,4,4,4,4,4,4,4,4,4
"292",3974,-337.578947368421,3927,161.505263157895,112.168421052632,3785,106.526315789474,3990,4113,171.652631578947,-180.136842105263,4494,3700,-0.136842105263158,7,0,1559,1771,416,4,4,4,4,4,4,4,4,4,4,4,4,4,4,4,4
"293",3979,-338.094736842105,3933,155.347368421053,113.705263157895,3784,108.578947368421,3991,4111,170.631578947368,-177.063157894737,4495,3701,-2.70526315789474,8,0,1559,1771,464,4,4,4,4,4,4,4,4,4,4,4,4,4,4,4,4
"294",3976,-338.094736842105,3941,159.452631578947,114.726315789474,3778,108.063157894737,3990,4114,171.136842105263,-178.6,4494,3704,-2.18947368421053,9,0,1563,1771,466,4,4,4,4,4,4,4,4,4,4,4,4,4,4,4,4
"295",3976,-340.136842105263,3944,157.915789473684,117.810526315789,3779,109.6,3990,4120,173.705263157895,-174.505263157895,4493,3705,-2.18947368421053,10,0,1559,1771,507,4,4,4,4,4,4,4,4,4,4,4,4,4,4,4,4
"296",3984,-337.063157894737,3951,159.968421052632,123.452631578947,3787,117.810526315789,3994,4121,180.884210526316,-171.936842105263,4495,3704,-11.9368421052632,11,0,1563,1775,489,4,4,4,4,4,4,4,4,4,4,4,4,4,4,4,4
"297",3985,-335.010526315789,3962,166.126315789474,124.989473684211,3784,124.989473684211,3994,4119,179.347368421053,-177.578947368421,4489,3705,-21.6842105263158,12,0,1559,1771,461,4,4,4,4,4,4,4,4,4,4,4,4,4,4,4,4
"298",3977,-338.094736842105,3963,163.557894736842,118.831578947368,3776,123.957894736842,3991,4121,172.684210526316,-181.168421052632,4481,3703,-17.5789473684211,13,0,1563,1771,477,4,4,4,4,4,4,4,4,4,4,4,4,4,4,4,4
"299",3973,-339.631578947368,3959,160.484210526316,110.631578947368,3780,120.884210526316,3989,4119,178.315789473684,-181.168421052632,4485,3699,-10.4,14,0,1559,1775,507,4,4,4,4,4,4,4,4,4,4,4,4,4,4,4,4
"300",3973,-337.578947368421,3959,160.989473684211,109.6,3784,122.936842105263,3990,4113,187.547368421053,-181.684210526316,4490,3698,-15.0105263157895,15,0,1563,1775,489,4,4,4,4,4,4,4,4,4,4,4,4,4,4,4,4
"301",3973,-338.094736842105,3963,158.936842105263,111.136842105263,3782,124.989473684211,3990,4110,187.042105263158,-179.631578947368,4484,3700,-15.5263157894737,16,0,1563,1771,0,4,4,4,4,4,4,4,4,4,4,4,4,4,4,4,4
"302",3972,-338.6,3964,153.810526315789,111.136842105263,3783,124.989473684211,3989,4111,184.989473684211,-177.063157894737,4476,3700,-13.9894736842105,17,0,1559,1775,0,4,4,4,4,4,4,4,4,4,4,4,4,4,4,4,4
"303",3965,-338.094736842105,3961,146.631578947368,108.063157894737,3785,122.421052631579,3990,4110,186.526315789474,-179.115789473684,4476,3698,-25.2736842105263,18,0,1563,1771,0,4,4,4,4,4,4,4,4,4,4,4,4,4,4,4,4
"304",3957,-340.136842105263,3955,139.968421052632,98.3157894736842,3778,119.347368421053,3987,4110,183.957894736842,-179.631578947368,4475,3695,-28.3473684210526,19,0,1559,1775,0,4,4,4,4,4,4,4,4,4,4,4,4,4,4,4,4
"305",3956,-341.684210526316,3959,137.915789473684,90.6315789473684,3771,121.4,3983,4111,181.905263157895,-181.168421052632,4469,3696,-18.6,20,0,1563,1771,0,4,4,4,4,4,4,4,4,4,4,4,4,4,4,4,4
"306",3958,-341.168421052632,3967,138.936842105263,93.7052631578947,3774,123.452631578947,3981,4106,184.989473684211,-183.726315789474,4465,3697,-21.6842105263158,21,0,1559,1775,0,4,4,4,4,4,4,4,4,4,4,4,4,4,4,4,4
"307",3965,-331.936842105263,3970,144.073684210526,97.8105263157895,3782,123.957894736842,3987,4103,191.652631578947,-183.221052631579,4469,3695,-30.4,22,0,1563,1775,0,4,4,4,4,4,4,4,4,4,4,4,4,4,4,4,4
"308",3974,-319.115789473684,3978,159.968421052632,96.778947368421,3792,131.136842105263,3998,4108,200.368421052632,-187.315789473684,4476,3693,-22.1894736842105,23,0,1559,1775,0,4,4,4,4,4,4,4,4,4,4,4,4,4,4,4,4
"309",3979,-320.136842105263,3988,172.273684210526,96.778947368421,3795,139.863157894737,4004,4110,210.115789473684,-196.042105263158,4477,3697,-15.5263157894737,24,0,1559,1779,0,4,4,4,4,4,4,4,4,4,4,4,4,4,4,4,4
"310",3977,-319.631578947368,3992,169.715789473684,97.8105263157895,3792,138.831578947368,4003,4107,214.221052631579,-197.063157894737,4475,3699,-16.0421052631579,25,0,1563,1771,0,4,4,4,4,4,4,4,4,4,4,4,4,4,4,4,4
"311",3978,-309.368421052632,3988,162.536842105263,97.8105263157895,3793,137.294736842105,3997,4106,210.115789473684,-193.989473684211,4468,3689,-12.4526315789474,26,0,1555,1779,0,4,4,4,4,4,4,4,4,4,4,4,4,4,4,4,4
"312",3979,-310.4,3981,158.936842105263,96.778947368421,3793,140.368421052632,3994,4106,203.957894736842,-196.547368421053,4458,3684,-14.5052631578947,27,0,1563,1775,0,4,4,4,4,4,4,4,4,4,4,4,4,4,4,4,4
"313",3972,-327.831578947368,3974,153.305263157895,92.6842105263158,3783,132.684210526316,3987,4101,195.757894736842,-195.010526315789,4448,3689,-31.4210526315789,28,0,1563,1775,0,4,4,4,4,4,4,4,4,4,4,4,4,4,4,4,4
"314",3960,-338.094736842105,3970,141.505263157895,84.4736842105263,3770,124.473684210526,3975,4097,187.042105263158,-186.810526315789,4435,3690,-51.4210526315789,29,0,1559,1775,0,4,4,4,4,4,4,4,4,4,4,4,4,4,4,4,4
"315",3957,-335.010526315789,3970,133.305263157895,80.8842105263158,3769,129.084210526316,3972,4100,185.494736842105,-181.168421052632,4428,3692,-51.9368421052632,30,0,1559,1779,0,4,4,4,4,4,4,4,4,4,4,4,4,4,4,4,4
"316",3958,-335.526315789474,3970,123.557894736842,78.8315789473684,3770,131.652631578947,3973,4107,188.578947368421,-180.136842105263,4429,3695,-46.2947368421053,31,0,1567,1775,0,4,4,4,4,4,4,4,4,4,4,4,4,4,4,4,4
"317",3954,-341.168421052632,3970,110.221052631579,74.7263157894737,3763,124.989473684211,3968,4110,188.063157894737,-188.863157894737,4427,3690,-50.9157894736842,32,0,1559,1775,0,4,4,4,4,4,4,4,4,4,4,4,4,4,4,4,4
"318",3953,-340.136842105263,3968,110.221052631579,73.1894736842105,3756,123.957894736842,3964,4102,183.957894736842,-195.010526315789,4418,3683,-58.0947368421053,33,0,1563,1775,0,4,4,4,4,4,4,4,4,4,4,4,4,4,4,4,4
"319",3957,-335.010526315789,3967,126.631578947368,72.6842105263158,3763,128.578947368421,3965,4093,182.936842105263,-192.957894736842,4414,3683,-59.1157894736842,34,0,1563,1771,0,4,4,4,4,4,4,4,4,4,4,4,4,4,4,4,4
"320",3959,-333.473684210526,3971,137.915789473684,69.0842105263158,3771,128.578947368421,3967,4092,187.042105263158,-196.042105263158,4414,3681,-58.6,35,0,1559,1775,0,4,4,4,4,4,4,4,4,4,4,4,4,4,4,4,4
"321",3964,-329.368421052632,3973,138.936842105263,70.6315789473684,3769,126.010526315789,3968,4093,188.578947368421,-201.168421052632,4415,3682,-63.2210526315789,36,0,1563,1771,0,4,4,4,4,4,4,4,4,4,4,4,4,4,4,4,4
"322",3972,-322.18947368421,3974,142.021052631579,76.7789473684211,3770,131.652631578947,3973,4092,190.631578947368,-198.6,4417,3686,-62.7052631578947,37,0,1559,1771,0,4,4,4,4,4,4,4,4,4,4,4,4,4,4,4,4
"323",3969,-321.168421052632,3972,145.610526315789,76.2736842105263,3777,138.831578947368,3976,4090,198.831578947368,-196.547368421053,4422,3683,-48.8631578947368,38,0,1559,1771,0,4,4,4,4,4,4,4,4,4,4,4,4,4,4,4,4
"324",3963,-322.705263157895,3969,142.536842105263,72.6842105263158,3777,138.831578947368,3973,4091,200.368421052632,-197.063157894737,4422,3684,-40.1368421052632,39,0,1559,1775,0,4,4,4,4,4,4,4,4,4,4,4,4,4,4,4,4
"325",3966,-324.242105263158,3970,139.968421052632,73.7052631578947,3770,139.347368421053,3964,4093,191.652631578947,-196.547368421053,4411,3691,-53.9894736842105,40,0,1563,1771,0,4,4,4,4,4,4,4,4,4,4,4,4,4,4,4,4
"326",3973,-324.757894736842,3975,142.536842105263,76.7789473684211,3770,143.452631578947,3958,4095,189.084210526316,-196.042105263158,4405,3693,-65.7789473684211,41,0,1555,1771,0,4,4,4,4,4,4,4,4,4,4,4,4,4,4,4,4
"327",3974,-321.168421052632,3975,143.557894736842,78.3157894736842,3773,145.494736842105,3962,4099,190.115789473684,-188.863157894737,4405,3692,-62.1894736842105,42,0,1559,1775,0,4,4,4,4,4,4,4,4,4,4,4,4,4,4,4,4
"328",3972,-319.631578947368,3972,141.505263157895,76.2736842105263,3771,143.452631578947,3962,4104,185.494736842105,-185.273684210526,4399,3693,-65.7789473684211,43,0,1559,1771,0,4,4,4,4,4,4,4,4,4,4,4,4,4,4,4,4
"329",3971,-321.168421052632,3971,142.536842105263,72.6842105263158,3770,142.936842105263,3959,4099,185.494736842105,-195.010526315789,4393,3693,-67.8315789473684,44,0,1555,1775,0,4,4,4,4,4,4,4,4,4,4,4,4,4,4,4,4
"330",3970,-319.115789473684,3969,144.073684210526,75.7578947368421,3771,149.084210526316,3960,4093,188.063157894737,-197.063157894737,4391,3695,-65.2736842105263,45,0,1555,1775,0,4,4,4,4,4,4,4,4,4,4,4,4,4,4,4,4
"331",3968,-320.136842105263,3966,139.968421052632,76.2736842105263,3768,156.778947368421,3956,4093,181.4,-188.347368421053,4382,3699,-73.9894736842105,46,0,1559,1775,0,4,4,4,4,4,4,4,4,4,4,4,4,4,4,4,4
"332",3962,-323.221052631579,3962,136.378947368421,68.0631578947368,3767,154.726315789474,3951,4097,179.347368421053,-185.273684210526,4376,3701,-82.1894736842105,47,0,1555,1771,0,4,4,4,4,4,4,4,4,4,4,4,4,4,4,4,4
"333",3961,-313.473684210526,3961,140.484210526316,64.9894736842105,3772,151.136842105263,3957,4103,188.578947368421,-184.242105263158,4383,3700,-78.0947368421053,48,0,1559,1771,0,4,4,4,4,4,4,4,4,4,4,4,4,4,4,4,4
"334",3961,-305.273684210526,3961,146.126315789474,67.5473684210526,3771,155.242105263158,3961,4108,192.168421052632,-179.115789473684,4384,3701,-78.6,49,0,1555,1771,0,4,4,4,4,4,4,4,4,4,4,4,4,4,4,4,4
"335",3959,-316.042105263158,3959,142.536842105263,65.4947368421053,3757,153.705263157895,3949,4106,187.547368421053,-178.6,4374,3701,-83.2210526315789,50,0,1555,1775,0,4,4,4,4,4,4,4,4,4,4,4,4,4,4,4,4
"336",3957,-325.273684210526,3954,135.863157894737,60.8842105263158,3747,144.473684210526,3941,4099,187.042105263158,-182.189473684211,4367,3700,-82.7052631578947,51,0,1555,1775,0,4,4,4,4,4,4,4,4,4,4,4,4,4,4,4,4
"337",3952,-322.705263157895,3946,136.894736842105,61.9052631578947,3741,140.368421052632,3944,4093,186.526315789474,-186.810526315789,4363,3699,-88.3473684210526,52,0,1559,1775,0,4,4,4,4,4,4,4,4,4,4,4,4,4,4,4,4
"338",3948,-326.810526315789,3943,137.915789473684,60.3684210526316,3729,141.4,3943,4090,181.4,-187.831578947368,4354,3698,-99.1157894736842,53,0,1555,1771,0,4,4,4,4,4,4,4,4,4,4,4,4,4,4,4,4
"339",3950,-339.631578947368,3941,131.757894736842,52.1684210526316,3713,139.347368421053,3936,4089,175.242105263158,-184.757894736842,4339,3693,-106.810526315789,54,0,1555,1775,0,4,4,4,4,4,4,4,4,4,4,4,4,4,4,4,4
"340",3954,-339.631578947368,3942,132.789473684211,46.0105263157895,3708,137.810526315789,3935,4087,170.631578947368,-184.242105263158,4331,3691,-110.915789473684,55,0,1559,1771,0,4,4,4,4,4,4,4,4,4,4,4,4,4,4,4,4
"341",3964,-325.778947368421,3949,148.684210526316,41.9052631578947,3715,143.957894736842,3943,4091,173.705263157895,-183.726315789474,4336,3697,-106.294736842105,56,0,1555,1771,0,4,4,4,4,4,4,4,4,4,4,4,4,4,4,4,4
"342",3973,-319.631578947368,3952,157.915789473684,36.2736842105263,3718,149.084210526316,3947,4103,181.905263157895,-177.578947368421,4343,3700,-96.5473684210526,57,0,1563,1775,0,4,4,4,4,4,4,4,4,4,4,4,4,4,4,4,4
"343",3968,-323.221052631579,3946,153.810526315789,32.6842105263158,3713,144.989473684211,3946,4107,187.547368421053,-170.4,4341,3702,-91.9368421052632,58,0,1563,1775,0,4,4,4,4,4,4,4,4,4,4,4,4,4,4,4,4
"344",3958,-327.315789473684,3942,151.757894736842,32.1684210526316,3705,141.4,3943,4103,184.989473684211,-171.936842105263,4333,3706,-97.0631578947368,59,0,1559,1771,0,4,4,4,4,4,4,4,4,4,4,4,4,4,4,4,4
"345",3958,-326.294736842105,3942,154.326315789474,30.6315789473684,3699,142.421052631579,3944,4105,185.494736842105,-176.042105263158,4328,3704,-101.684210526316,60,0,1559,1775,0,4,4,4,4,4,4,4,4,4,4,4,4,4,4,4,4
"346",3964,-324.757894736842,3940,154.842105263158,31.1368421052632,3700,143.957894736842,3945,4111,193.189473684211,-171.421052631579,4329,3699,-101.168421052632,61,0,1567,1771,0,4,4,4,4,4,4,4,4,4,4,4,4,4,4,4,4
"347",3967,-330.915789473684,3940,151.252631578947,32.1684210526316,3699,142.421052631579,3942,4106,187.547368421053,-168.347368421053,4321,3701,-114.505263157895,62,0,1559,1775,0,4,4,4,4,4,4,4,4,4,4,4,4,4,4,4,4
"348",3968,-337.578947368421,3941,150.221052631579,29.0842105263158,3693,140.884210526316,3940,4093,175.757894736842,-178.6,4308,3700,-126.294736842105,63,0,1563,1779,0,4,4,4,4,4,4,4,4,4,4,4,4,4,4,4,4
"349",3973,-327.831578947368,3940,159.968421052632,28.5789473684211,3701,147.547368421053,3952,4091,184.989473684211,-181.168421052632,4318,3701,-103.726315789474,64,0,1567,1771,479,4,4,4,4,4,4,4,4,4,4,4,4,4,4,4,4
"350",3974,-311.421052631579,3941,171.252631578947,33.1894736842105,3719,155.757894736842,3966,4102,205.494736842105,-168.863157894737,4339,3710,-75.0105263157895,65,0,1555,1775,448,4,4,4,4,4,4,4,4,4,4,4,4,4,4,4,4
"351",3976,-302.18947368421,3943,176.378947368421,41.9052631578947,3727,156.273684210526,3972,4109,212.684210526316,-164.242105263158,4345,3712,-72.9578947368421,66,0,1563,1775,491,4,4,4,4,4,4,4,4,4,4,4,4,4,4,4,4
"352",3985,-291.936842105263,3946,188.168421052632,47.5473684210526,3733,155.757894736842,3980,4109,217.810526315789,-169.884210526316,4344,3707,-74.5052631578947,67,0,1563,1775,504,4,4,4,4,4,4,4,4,4,4,4,4,4,4,4,4
"353",3992,-286.810526315789,3947,198.431578947368,44.9894736842105,3743,159.863157894737,3985,4110,222.936842105263,-172.957894736842,4347,3705,-71.4210526315789,68,0,1559,1775,495,4,4,4,4,4,4,4,4,4,4,4,4,4,4,4,4
"354",3987,-289.884210526316,3945,192.273684210526,43.4526315789474,3741,160.884210526316,3978,4111,217.294736842105,-175.010526315789,4338,3705,-83.2210526315789,69,0,1555,1779,506,4,4,4,4,4,4,4,4,4,4,4,4,4,4,4,4
"355",3982,-293.473684210526,3945,184.073684210526,45.4947368421053,3733,159.347368421053,3973,4110,208.578947368421,-172.957894736842,4326,3705,-93.4736842105263,70,0,1563,1771,499,4,4,4,4,4,4,4,4,4,4,4,4,4,4,4,4
"356",3978,-299.115789473684,3944,180.989473684211,39.8631578947368,3729,157.810526315789,3968,4103,207.547368421053,-165.273684210526,4321,3708,-91.4210526315789,71,0,1555,1771,416,4,4,4,4,4,4,4,4,4,4,4,4,4,4,4,4
"357",3970,-308.347368421053,3938,171.252631578947,29.0842105263158,3718,154.221052631579,3957,4092,202.421052631579,-163.221052631579,4307,3710,-98.0947368421053,72,0,1559,1775,464,4,4,4,4,4,4,4,4,4,4,4,4,4,4,4,4
"358",3968,-312.452631578947,3931,166.126315789474,28.5789473684211,3712,152.684210526316,3952,4085,189.084210526316,-173.473684210526,4292,3708,-109.884210526316,73,0,1563,1767,466,4,4,4,4,4,4,4,4,4,4,4,4,4,4,4,4
"359",3973,-304.757894736842,3931,177.4,38.3157894736842,3721,154.726315789474,3958,4074,190.631578947368,-180.652631578947,4299,3706,-104.757894736842,74,0,1559,1771,507,4,4,4,4,4,4,4,4,4,4,4,4,4,4,4,4
"360",3975,-294.505263157895,3937,187.147368421053,43.9578947368421,3731,155.242105263158,3967,4060,202.936842105263,-173.989473684211,4312,3706,-92.9578947368421,75,0,1559,1771,489,4,4,4,4,4,4,4,4,4,4,4,4,4,4,4,4
"361",3979,-291.421052631579,3940,191.252631578947,41.9052631578947,3736,155.757894736842,3974,4056,206.010526315789,-169.368421052632,4309,3706,-95.5263157894737,76,0,1559,1771,461,4,4,4,4,4,4,4,4,4,4,4,4,4,4,4,4
"362",3988,-289.368421052632,3940,202.021052631579,43.4526315789474,3739,158.315789473684,3976,4062,211.136842105263,-176.547368421053,4311,3704,-93.9894736842105,77,0,1563,1771,477,4,4,4,4,4,4,4,4,4,4,4,4,4,4,4,4
"363",3992,-286.810526315789,3943,206.126315789474,43.9578947368421,3744,158.831578947368,3975,4065,223.452631578947,-180.652631578947,4322,3699,-77.0631578947368,78,0,1559,1775,507,4,4,4,4,4,4,4,4,4,4,4,4,4,4,4,4
"364",3984,-290.4,3941,195.863157894737,35.7578947368421,3745,155.757894736842,3975,4068,226.010526315789,-179.631578947368,4321,3697,-77.0631578947368,79,0,1563,1771,489,4,4,4,4,4,4,4,4,4,4,4,4,4,4,4,4
"365",3975,-295.526315789474,3932,184.578947368421,28.5789473684211,3740,154.726315789474,3973,4073,217.294736842105,-178.094736842105,4309,3697,-96.0421052631579,80,0,1559,1767,461,4,4,4,4,4,4,4,4,4,4,4,4,4,4,4,4
"366",3975,-294.505263157895,3927,179.968421052632,31.1368421052632,3738,156.778947368421,3967,4076,208.578947368421,-171.936842105263,4302,3697,-100.136842105263,81,0,1563,1775,477,4,4,4,4,4,4,4,4,4,4,4,4,4,4,4,4
"367",3976,-293.989473684211,3930,178.431578947368,30.1157894736842,3741,156.273684210526,3960,4075,203.452631578947,-168.863157894737,4296,3703,-102.189473684211,82,0,1563,1771,507,4,4,4,4,4,4,4,4,4,4,4,4,4,4,4,4
"368",3973,-296.042105263158,3937,180.484210526316,33.1894736842105,3737,158.315789473684,3957,4075,197.294736842105,-177.063157894737,4285,3707,-118.6,83,0,1563,1775,489,4,4,4,4,4,4,4,4,4,4,4,4,4,4,4,4
"369",3977,-294.505263157895,3942,189.715789473684,42.9368421052632,3738,166.526315789474,3958,4087,191.652631578947,-182.705263157895,4281,3709,-120.652631578947,84,0,1559,1775,461,4,4,4,4,4,4,4,4,4,4,4,4,4,4,4,4
"370",3987,-291.421052631579,3944,200.989473684211,39.8631578947368,3745,167.042105263158,3961,4096,191.136842105263,-181.168421052632,4286,3714,-109.368421052632,85,0,1563,1775,477,4,4,4,4,4,4,4,4,4,4,4,4,4,4,4,4
"371",3982,-287.315789473684,3941,203.042105263158,30.1157894736842,3745,159.347368421053,3967,4096,197.294736842105,-181.168421052632,4290,3710,-107.831578947368,86,0,1559,1775,507,4,4,4,4,4,4,4,4,4,4,4,4,4,4,4,4
"372",3975,-279.115789473684,3938,203.557894736842,31.6526315789474,3753,157.810526315789,3973,4100,204.473684210526,-182.705263157895,4295,3698,-100.652631578947,87,0,1563,1771,489,4,4,4,4,4,4,4,4,4,4,4,4,4,4,4,4
"373",3983,-270.915789473684,3944,213.810526315789,34.7263157894737,3770,165.494736842105,3984,4110,214.726315789474,-182.189473684211,4307,3698,-82.7052631578947,88,0,1559,1771,461,4,4,4,4,4,4,4,4,4,4,4,4,4,4,4,4
"374",3994,-268.863157894737,3947,223.042105263158,31.1368421052632,3775,167.042105263158,3991,4113,222.421052631579,-181.684210526316,4315,3703,-80.6526315789474,89,0,1559,1775,477,4,4,4,4,4,4,4,4,4,4,4,4,4,4,4,4
"375",3989,-272.452631578947,3944,219.452631578947,28.5789473684211,3768,159.863157894737,3985,4106,215.242105263158,-182.705263157895,4307,3697,-92.4526315789474,90,0,1559,1775,507,4,4,4,4,4,4,4,4,4,4,4,4,4,4,4,4
"376",3977,-275.526315789474,3941,215.347368421053,28.0631578947368,3761,155.757894736842,3973,4100,205.494736842105,-180.136842105263,4297,3698,-95.0105263157895,91,0,1563,1775,489,4,4,4,4,4,4,4,4,4,4,4,4,4,4,4,4
"377",3975,-278.094736842105,3941,218.936842105263,26.0105263157895,3759,156.778947368421,3974,4097,203.452631578947,-175.526315789474,4295,3711,-92.4526315789474,92,0,1555,1771,461,4,4,4,4,4,4,4,4,4,4,4,4,4,4,4,4
"378",3979,-283.726315789474,3941,215.347368421053,25.4947368421053,3760,157.810526315789,3972,4089,195.242105263158,-170.915789473684,4289,3718,-101.684210526316,93,0,1559,1775,477,4,4,4,4,4,4,4,4,4,4,4,4,4,4,4,4
"379",3977,-289.368421052632,3941,206.126315789474,25.4947368421053,3758,157.810526315789,3962,4081,181.905263157895,-166.810526315789,4277,3715,-116.547368421053,94,0,1563,1771,507,4,4,4,4,4,4,4,4,4,4,4,4,4,4,4,4
"380",3973,-292.957894736842,3939,206.631578947368,23.4526315789474,3754,156.273684210526,3958,4087,179.347368421053,-169.368421052632,4274,3714,-117.578947368421,95,0,1555,1771,489,4,4,4,4,4,4,4,4,4,4,4,4,4,4,4,4
"381",3976,-290.4,3939,216.378947368421,22.9368421052632,3756,156.778947368421,3967,4091,185.494736842105,-173.473684210526,4281,3715,-107.315789473684,96,0,1559,1775,461,4,4,4,4,4,4,4,4,4,4,4,4,4,4,4,4
"382",3989,-279.115789473684,3947,228.168421052632,27.5473684210526,3767,165.494736842105,3981,4094,194.221052631579,-169.368421052632,4292,3716,-97.0631578947368,97,0,1559,1775,477,4,4,4,4,4,4,4,4,4,4,4,4,4,4,4,4
"383",3997,-270.915789473684,3953,236.894736842105,31.1368421052632,3776,171.652631578947,3993,4102,203.957894736842,-162.705263157895,4300,3722,-91.4210526315789,98,0,1559,1771,507,4,4,4,4,4,4,4,4,4,4,4,4,4,4,4,4
"384",3995,-273.473684210526,3947,232.273684210526,31.6526315789474,3776,171.136842105263,3993,4106,204.473684210526,-163.221052631579,4299,3725,-95.0105263157895,99,0,1551,1775,489,4,4,4,4,4,4,4,4,4,4,4,4,4,4,4,4
"385",3989,-280.136842105263,3942,223.557894736842,28.0631578947368,3770,168.063157894737,3982,4103,198.831578947368,-165.273684210526,4295,3716,-99.6315789473684,100,0,1563,1775,461,4,4,4,4,4,4,4,4,4,4,4,4,4,4,4,4
"386",3990,-283.726315789474,3945,219.452631578947,19.3473684210526,3766,162.421052631579,3977,4101,195.757894736842,-166.294736842105,4288,3714,-102.189473684211,101,0,1555,1771,477,4,4,4,4,4,4,4,4,4,4,4,4,4,4,4,4
"387",3988,-288.863157894737,3943,203.042105263158,13.1894736842105,3760,157.810526315789,3974,4097,189.6,-164.242105263158,4278,3721,-109.368421052632,102,0,1559,1775,507,4,4,4,4,4,4,4,4,4,4,4,4,4,4,4,4
"388",3989,-292.957894736842,3943,193.810526315789,15.7578947368421,3757,164.473684210526,3969,4101,183.957894736842,-158.6,4277,3723,-113.989473684211,103,0,1563,1767,489,4,4,4,4,4,4,4,4,4,4,4,4,4,4,4,4
"389",3993,-285.778947368421,3949,211.252631578947,20.3684210526316,3764,172.168421052632,3973,4107,189.6,-155.010526315789,4282,3722,-111.421052631579,104,0,1555,1771,461,4,4,4,4,4,4,4,4,4,4,4,4,4,4,4,4
"390",3993,-276.547368421053,3948,215.347368421053,18.8315789473684,3770,171.136842105263,3977,4105,194.221052631579,-157.063157894737,4282,3723,-108.347368421053,105,0,1559,1775,477,4,4,4,4,4,4,4,4,4,4,4,4,4,4,4,4
"391",3992,-282.705263157895,3944,198.936842105263,19.3473684210526,3770,170.115789473684,3975,4100,189.6,-161.168421052632,4282,3723,-104.757894736842,106,0,1563,1771,507,4,4,4,4,4,4,4,4,4,4,4,4,4,4,4,4
"392",3989,-292.452631578947,3942,196.894736842105,17.8105263157895,3767,168.063157894737,3972,4098,186.526315789474,-164.757894736842,4281,3722,-106.810526315789,107,0,1563,1771,489,4,4,4,4,4,4,4,4,4,4,4,4,4,4,4,4
"393",3987,-292.452631578947,3939,201.505263157895,13.1894736842105,3765,166.526315789474,3971,4099,188.578947368421,-163.221052631579,4278,3723,-112.957894736842,108,0,1555,1775,461,4,4,4,4,4,4,4,4,4,4,4,4,4,4,4,4
"394",3989,-291.936842105263,3941,200.989473684211,19.3473684210526,3770,170.115789473684,3978,4105,189.084210526316,-156.547368421053,4281,3725,-108.863157894737,109,0,1567,1771,477,4,4,4,4,4,4,4,4,4,4,4,4,4,4,4,4
"395",3994,-286.810526315789,3945,205.094736842105,28.5789473684211,3779,173.189473684211,3989,4108,190.631578947368,-151.421052631579,4283,3726,-102.705263157895,110,0,1559,1771,507,4,4,4,4,4,4,4,4,4,4,4,4,4,4,4,4
"396",3993,-278.6,3944,197.915789473684,22.4210526315789,3779,171.136842105263,3991,4107,195.757894736842,-150.4,4282,3728,-104.242105263158,111,0,1559,1775,489,4,4,4,4,4,4,4,4,4,4,4,4,4,4,4,4
"397",3990,-285.778947368421,3943,187.663157894737,12.1684210526316,3776,170.115789473684,3986,4108,195.757894736842,-155.526315789474,4281,3728,-103.221052631579,112,0,1563,1771,461,4,4,4,4,4,4,4,4,4,4,4,4,4,4,4,4
"398",3991,-292.957894736842,3944,188.168421052632,15.7578947368421,3778,173.705263157895,3987,4109,190.631578947368,-163.726315789474,4282,3725,-102.705263157895,113,0,1563,1775,477,4,4,4,4,4,4,4,4,4,4,4,4,4,4,4,4
"399",3994,-289.884210526316,3944,168.168421052632,17.8105263157895,3775,173.705263157895,3986,4105,187.547368421053,-162.705263157895,4279,3723,-115.526315789474,114,0,1559,1775,507,4,4,4,4,4,4,4,4,4,4,4,4,4,4,4,4
"400",3992,-294.505263157895,3949,128.684210526316,11.1368421052632,3768,171.652631578947,3979,4105,184.989473684211,-155.526315789474,4271,3723,-124.242105263158,115,0,1563,1775,489,4,4,4,4,4,4,4,4,4,4,4,4,4,4,4,4
"401",3989,-303.221052631579,3951,114.842105263158,11.1368421052632,3769,175.242105263158,3984,4108,184.989473684211,-153.989473684211,4273,3723,-113.473684210526,116,0,1563,1771,461,4,4,4,4,4,4,4,4,4,4,4,4,4,4,4,4
"402",3992,-303.221052631579,3948,123.042105263158,15.7578947368421,3773,178.831578947368,3991,4107,187.042105263158,-158.094736842105,4281,3722,-103.221052631579,117,0,1559,1779,477,4,4,4,4,4,4,4,4,4,4,4,4,4,4,4,4
"403",3988,-306.294736842105,3943,120.484210526316,10.1157894736842,3766,173.189473684211,3982,4103,178.831578947368,-159.115789473684,4272,3725,-113.989473684211,118,0,1563,1771,507,4,4,4,4,4,4,4,4,4,4,4,4,4,4,4,4
"404",3975,-315.010526315789,3944,117.915789473684,0.368421052631579,3753,170.115789473684,3971,4105,168.578947368421,-155.526315789474,4250,3727,-132.452631578947,119,0,1563,1771,489,4,4,4,4,4,4,4,4,4,4,4,4,4,4,4,4
"405",3974,-315.010526315789,3950,120.484210526316,2.93684210526316,3753,175.757894736842,3974,4108,171.136842105263,-153.989473684211,4247,3727,-137.578947368421,120,0,1559,1779,461,4,4,4,4,4,4,4,4,4,4,4,4,4,4,4,4
"406",3984,-310.4,3958,125.094736842105,11.6526315789474,3764,180.884210526316,3985,4110,180.884210526316,-156.042105263158,4261,3730,-131.421052631579,121,0,1563,1771,477,4,4,4,4,4,4,4,4,4,4,4,4,4,4,4,4
"407",3987,-309.368421052632,3969,132.789473684211,12.6842105263158,3767,185.494736842105,3987,4117,184.473684210526,-152.452631578947,4264,3737,-123.221052631579,122,0,1563,1775,507,4,4,4,4,4,4,4,4,4,4,4,4,4,4,4,4
"408",3992,-303.221052631579,3981,140.989473684211,17.8105263157895,3770,196.273684210526,3992,4122,184.989473684211,-143.726315789474,4266,3739,-109.368421052632,123,0,1559,1775,489,4,4,4,4,4,4,4,4,4,4,4,4,4,4,4,4
"409",4001,-292.957894736842,3988,150.221052631579,28.5789473684211,3783,202.936842105263,4003,4120,188.063157894737,-141.684210526316,4276,3738,-94.5052631578947,124,0,1563,1775,461,4,4,4,4,4,4,4,4,4,4,4,4,4,4,4,4
"410",4005,-291.936842105263,3995,155.863157894737,29.0842105263158,3786,204.473684210526,4008,4122,188.578947368421,-139.115789473684,4279,3738,-95.5263157894737,125,0,1559,1775,477,4,4,4,4,4,4,4,4,4,4,4,4,4,4,4,4
"411",4003,-295.010526315789,4004,156.894736842105,24.9894736842105,3786,207.547368421053,4007,4113,190.115789473684,-132.452631578947,4276,3738,-104.242105263158,126,0,1563,1775,507,4,4,4,4,4,4,4,4,4,4,4,4,4,4,4,4
"412",4006,-293.473684210526,4007,160.484210526316,28.5789473684211,3795,211.652631578947,4015,4085,196.273684210526,-130.915789473684,4283,3740,-97.5789473684211,127,0,1559,1771,489,4,4,4,4,4,4,4,4,4,4,4,4,4,4,4,4
"413",4008,-289.368421052632,4007,162.536842105263,31.6526315789474,3804,211.652631578947,4025,4071,201.905263157895,-132.452631578947,4288,3743,-89.3684210526316,128,0,1563,1771,461,4,4,4,4,4,4,4,4,4,4,4,4,4,4,4,4
"414",4005,-291.421052631579,4011,157.4,24.9894736842105,3798,211.652631578947,4018,4083,197.294736842105,-132.452631578947,4283,3743,-92.9578947368421,0,0,1559,1775,479,4,4,4,4,4,4,4,4,4,4,4,4,4,4,4,4
"415",4003,-302.18947368421,4015,152.789473684211,22.4210526315789,3787,216.273684210526,4006,4086,187.547368421053,-135.526315789474,4276,3743,-99.6315789473684,1,0,1563,1771,448,4,4,4,4,4,4,4,4,4,4,4,4,4,4,4,4
"416",4007,-308.863157894737,4022,154.842105263158,27.5473684210526,3783,215.242105263158,4004,4084,186.010526315789,-137.063157894737,4270,3743,-99.6315789473684,2,0,1563,1767,491,4,4,4,4,4,4,4,4,4,4,4,4,4,4,4,4
"417",4014,-304.242105263158,4033,157.915789473684,30.1157894736842,3786,195.242105263158,4006,4090,187.547368421053,-133.473684210526,4267,3742,-101.168421052632,3,0,1563,1775,504,4,4,4,4,4,4,4,4,4,4,4,4,4,4,4,4
"418",4016,-303.726315789474,4039,157.915789473684,28.5789473684211,3781,171.136842105263,4004,4089,180.884210526316,-135.526315789474,4262,3738,-111.936842105263,4,0,1563,1771,495,4,4,4,4,4,4,4,4,4,4,4,4,4,4,4,4
"419",4018,-308.863157894737,4044,156.894736842105,26.0105263157895,3772,173.705263157895,4001,4085,175.242105263158,-137.578947368421,4256,3737,-120.136842105263,5,0,1563,1771,506,4,4,4,4,4,4,4,4,4,4,4,4,4,4,4,4
"420",4018,-303.726315789474,4054,164.578947368421,21.4,3778,173.189473684211,4005,4091,182.421052631579,-130.915789473684,4262,3739,-111.936842105263,6,0,1563,1771,499,4,4,4,4,4,4,4,4,4,4,4,4,4,4,4,4
"421",4018,-294.505263157895,4062,173.305263157895,16.2736842105263,3790,127.547368421053,4013,4095,189.084210526316,-125.273684210526,4274,3741,-100.136842105263,7,0,1563,1775,416,4,4,4,4,4,4,4,4,4,4,4,4,4,4,4,4
"422",4020,-291.421052631579,4061,174.326315789474,16.2736842105263,3795,82.4210526315789,4016,4093,187.547368421053,-129.884210526316,4275,3745,-93.4736842105263,8,0,1563,1767,464,4,4,4,4,4,4,4,4,4,4,4,4,4,4,4,4
"423",4018,-295.010526315789,4060,171.757894736842,17.2947368421053,3796,83.4526315789474,4015,4092,187.042105263158,-134.505263157895,4271,3753,-87.3157894736842,9,0,1559,1771,466,4,4,4,4,4,4,4,4,4,4,4,4,4,4,4,4
"424",4013,-303.726315789474,4064,162.536842105263,15.7578947368421,3790,93.7052631578947,4009,4089,182.936842105263,-135.526315789474,4268,3751,-92.9578947368421,10,0,1563,1771,507,4,4,4,4,4,4,4,4,4,4,4,4,4,4,4,4
"425",4010,-310.4,4068,153.305263157895,15.2421052631579,3784,89.6,4002,4086,170.631578947368,-135.526315789474,4256,3741,-105.273684210526,11,0,1559,1767,489,4,4,4,4,4,4,4,4,4,4,4,4,4,4,4,4
"426",4012,-308.863157894737,4072,153.810526315789,16.7789473684211,3786,96.2736842105263,3998,4090,167.042105263158,-133.989473684211,4249,3744,-106.294736842105,12,0,1559,1775,461,4,4,4,4,4,4,4,4,4,4,4,4,4,4,4,4
"427",4017,-306.294736842105,4075,155.863157894737,18.3157894736842,3785,108.578947368421,3997,4097,172.168421052632,-130.4,4251,3754,-105.273684210526,13,0,1563,1767,477,4,4,4,4,4,4,4,4,4,4,4,4,4,4,4,4
"428",4021,-307.831578947368,4076,157.4,17.2947368421053,3786,108.578947368421,3999,4099,170.631578947368,-130.4,4248,3755,-108.863157894737,14,0,1559,1767,507,4,4,4,4,4,4,4,4,4,4,4,4,4,4,4,4
"429",4019,-302.18947368421,4084,167.663157894737,16.7789473684211,3796,105.494736842105,4004,4099,169.084210526316,-132.452631578947,4251,3751,-108.347368421053,15,0,1555,1767,489,4,4,4,4,4,4,4,4,4,4,4,4,4,4,4,4
"430",4023,-291.936842105263,4092,175.863157894737,20.3684210526316,3802,112.684210526316,4007,4099,174.726315789474,-136.042105263158,4263,3748,-99.6315789473684,16,0,1559,1771,0,4,4,4,4,4,4,4,4,4,4,4,4,4,4,4,4
"431",4029,-286.810526315789,4093,174.326315789474,21.4,3801,122.421052631579,4007,4095,174.726315789474,-144.242105263158,4265,3746,-95.0105263157895,17,0,1559,1771,0,4,4,4,4,4,4,4,4,4,4,4,4,4,4,4,4
"432",4023,-288.863157894737,4091,174.842105263158,16.7789473684211,3803,116.778947368421,4005,4090,170.631578947368,-149.368421052632,4259,3745,-93.9894736842105,18,0,1551,1771,0,4,4,4,4,4,4,4,4,4,4,4,4,4,4,4,4
"433",4015,-291.421052631579,4092,176.378947368421,14.2210526315789,3803,108.578947368421,4003,4090,170.631578947368,-143.726315789474,4258,3743,-95.0105263157895,19,0,1559,1771,0,4,4,4,4,4,4,4,4,4,4,4,4,4,4,4,4
"434",4015,-288.863157894737,4093,174.326315789474,14.2210526315789,3800,115.757894736842,4003,4095,167.547368421053,-135.010526315789,4254,3747,-98.0947368421053,20,0,1555,1775,0,4,4,4,4,4,4,4,4,4,4,4,4,4,4,4,4
"435",4016,-290.915789473684,4092,171.757894736842,12.1684210526316,3798,126.010526315789,3999,4100,158.315789473684,-132.452631578947,4248,3752,-104.757894736842,21,0,1555,1775,0,4,4,4,4,4,4,4,4,4,4,4,4,4,4,4,4
"436",4015,-300.652631578947,4093,168.168421052632,12.1684210526316,3796,124.989473684211,3989,4102,155.757894736842,-134.505263157895,4247,3753,-105.778947368421,22,0,1559,1771,0,4,4,4,4,4,4,4,4,4,4,4,4,4,4,4,4
"437",4019,-299.631578947368,4102,168.168421052632,16.2736842105263,3797,123.957894736842,3989,4105,167.042105263158,-133.473684210526,4254,3752,-92.4526315789474,23,0,1559,1775,0,4,4,4,4,4,4,4,4,4,4,4,4,4,4,4,4
"438",4027,-289.368421052632,4108,173.305263157895,19.8631578947368,3801,129.6,3996,4111,173.189473684211,-131.421052631579,4262,3755,-84.7578947368421,24,0,1555,1771,0,4,4,4,4,4,4,4,4,4,4,4,4,4,4,4,4
"439",4029,-291.421052631579,4107,174.326315789474,21.9052631578947,3801,134.726315789474,3997,4114,168.578947368421,-131.421052631579,4255,3754,-93.4736842105263,25,0,1555,1775,0,4,4,4,4,4,4,4,4,4,4,4,4,4,4,4,4
"440",4031,-295.526315789474,4107,176.894736842105,26.5263157894737,3796,139.863157894737,4002,4111,167.547368421053,-133.473684210526,4249,3752,-98.0947368421053,26,0,1563,1771,0,4,4,4,4,4,4,4,4,4,4,4,4,4,4,4,4
"441",4035,-290.915789473684,4113,184.073684210526,31.6526315789474,3790,140.884210526316,4005,4113,166.526315789474,-132.957894736842,4251,3758,-91.4210526315789,27,0,1555,1775,0,4,4,4,4,4,4,4,4,4,4,4,4,4,4,4,4
"442",4031,-297.578947368421,4112,181.505263157895,26.5263157894737,3773,132.168421052632,3995,4116,158.315789473684,-133.473684210526,4245,3758,-98.6,28,0,1559,1775,0,4,4,4,4,4,4,4,4,4,4,4,4,4,4,4,4
"443",4024,-311.421052631579,4106,172.789473684211,15.2421052631579,3759,123.957894736842,3987,4110,151.652631578947,-137.063157894737,4231,3747,-118.6,29,0,1559,1771,0,4,4,4,4,4,4,4,4,4,4,4,4,4,4,4,4
"444",4026,-310.915789473684,4102,171.757894736842,12.6842105263158,3756,122.936842105263,3989,4106,153.705263157895,-138.094736842105,4229,3743,-119.115789473684,30,0,1559,1779,0,4,4,4,4,4,4,4,4,4,4,4,4,4,4,4,4
"445",4030,-309.368421052632,4103,173.305263157895,15.2421052631579,3754,121.905263157895,3990,4111,153.705263157895,-137.578947368421,4233,3750,-107.315789473684,31,0,1559,1771,0,4,4,4,4,4,4,4,4,4,4,4,4,4,4,4,4
"446",4028,-318.6,4104,174.326315789474,16.2736842105263,3751,120.368421052632,3988,4112,151.652631578947,-135.526315789474,4234,3754,-105.778947368421,32,0,1563,1771,0,4,4,4,4,4,4,4,4,4,4,4,4,4,4,4,4
"447",4028,-323.221052631579,4103,176.378947368421,15.7578947368421,3752,122.936842105263,3987,4113,149.084210526316,-132.452631578947,4231,3754,-110.4,33,0,1559,1775,0,4,4,4,4,4,4,4,4,4,4,4,4,4,4,4,4
"448",4028,-321.684210526316,4103,174.326315789474,14.7263157894737,3754,124.473684210526,3986,4114,143.452631578947,-136.547368421053,4224,3752,-115.526315789474,34,0,1563,1771,0,4,4,4,4,4,4,4,4,4,4,4,4,4,4,4,4
"449",4031,-323.221052631579,4103,174.842105263158,20.3684210526316,3749,123.452631578947,3987,4112,139.347368421053,-141.684210526316,4219,3748,-119.115789473684,35,0,1559,1775,0,4,4,4,4,4,4,4,4,4,4,4,4,4,4,4,4
"450",4036,-323.221052631579,4105,179.968421052632,26.5263157894737,3745,125.494736842105,3987,4117,142.936842105263,-137.063157894737,4220,3746,-120.136842105263,36,0,1559,1775,0,4,4,4,4,4,4,4,4,4,4,4,4,4,4,4,4
"451",4032,-326.810526315789,4099,176.378947368421,19.8631578947368,3745,126.010526315789,3981,4122,142.421052631579,-135.526315789474,4219,3744,-124.757894736842,37,0,1559,1775,0,4,4,4,4,4,4,4,4,4,4,4,4,4,4,4,4
"452",4025,-338.094736842105,4092,168.168421052632,10.6315789473684,3740,122.936842105263,3972,4113,129.6,-139.631578947368,4212,3739,-130.915789473684,38,0,1563,1771,0,4,4,4,4,4,4,4,4,4,4,4,4,4,4,4,4
"453",4024,-343.221052631579,4090,166.631578947368,13.1894736842105,3734,120.884210526316,3970,4109,128.063157894737,-139.631578947368,4207,3739,-128.863157894737,39,0,1559,1775,0,4,4,4,4,4,4,4,4,4,4,4,4,4,4,4,4
"454",4027,-339.115789473684,4093,168.684210526316,15.2421052631579,3739,122.421052631579,3972,4114,140.368421052632,-142.189473684211,4213,3739,-120.136842105263,40,0,1559,1775,0,4,4,4,4,4,4,4,4,4,4,4,4,4,4,4,4
"455",4030,-336.042105263158,4093,165.094736842105,13.1894736842105,3749,124.989473684211,3973,4112,137.810526315789,-147.315789473684,4217,3738,-118.6,41,0,1559,1767,0,4,4,4,4,4,4,4,4,4,4,4,4,4,4,4,4
"456",4031,-338.094736842105,4092,157.4,12.6842105263158,3747,124.473684210526,3970,4106,123.957894736842,-150.915789473684,4206,3735,-129.368421052632,42,0,1555,1779,0,4,4,4,4,4,4,4,4,4,4,4,4,4,4,4,4
"457",4025,-340.652631578947,4090,155.347368421053,12.6842105263158,3742,120.884210526316,3962,4105,123.452631578947,-154.505263157895,4197,3735,-136.042105263158,43,0,1559,1775,0,4,4,4,4,4,4,4,4,4,4,4,4,4,4,4,4
"458",4021,-340.136842105263,4088,159.968421052632,11.1368421052632,3746,122.421052631579,3959,4108,129.084210526316,-151.936842105263,4204,3738,-128.863157894737,44,0,1559,1771,0,4,4,4,4,4,4,4,4,4,4,4,4,4,4,4,4
"459",4021,-339.631578947368,4084,158.936842105263,4.47368421052632,3748,123.452631578947,3963,4113,125.494736842105,-145.273684210526,4207,3735,-130.4,45,0,1559,1775,0,4,4,4,4,4,4,4,4,4,4,4,4,4,4,4,4
"460",4016,342.536842105263,4076,153.810526315789,-0.652631578947368,3741,114.221052631579,3958,4113,123.957894736842,-151.421052631579,4201,3725,-144.757894736842,46,0,1559,1775,0,4,4,4,4,4,4,4,4,4,4,4,4,4,4,4,4
"461",4011,333.810526315789,4074,153.305263157895,-1.16842105263158,3735,107.547368421053,3948,4111,123.957894736842,-161.168421052632,4196,3724,-145.778947368421,47,0,1563,1767,0,4,4,4,4,4,4,4,4,4,4,4,4,4,4,4,4
"462",4012,333.305263157895,4076,155.347368421053,-2.18947368421053,3736,112.168421052632,3942,4109,114.726315789474,-158.094736842105,4190,3726,-142.705263157895,48,0,1555,1771,0,4,4,4,4,4,4,4,4,4,4,4,4,4,4,4,4
"463",4012,334.842105263158,4076,153.305263157895,-4.2421052631579,3738,111.136842105263,3941,4110,107.042105263158,-155.526315789474,4182,3721,-151.936842105263,49,0,1563,1771,0,4,4,4,4,4,4,4,4,4,4,4,4,4,4,4,4
"464",4014,334.326315789474,4075,153.305263157895,-2.70526315789474,3736,105.494736842105,3941,4111,109.084210526316,-161.168421052632,4183,3721,-155.526315789474,50,0,1559,1767,0,4,4,4,4,4,4,4,4,4,4,4,4,4,4,4,4
"465",4018,334.326315789474,4075,153.305263157895,-0.136842105263158,3736,111.136842105263,3942,4109,110.631578947368,-166.294736842105,4184,3726,-150.4,51,0,1559,1771,0,4,4,4,4,4,4,4,4,4,4,4,4,4,4,4,4
"466",4022,333.810526315789,4074,146.126315789474,1.90526315789474,3734,116.778947368421,3941,4104,106.010526315789,-166.294736842105,4179,3725,-153.989473684211,52,0,1559,1771,0,4,4,4,4,4,4,4,4,4,4,4,4,4,4,4,4
"467",4022,335.347368421053,4075,141.505263157895,4.98947368421053,3737,112.168421052632,3942,4104,107.547368421053,-166.810526315789,4182,3725,-153.989473684211,53,0,1559,1771,0,4,4,4,4,4,4,4,4,4,4,4,4,4,4,4,4
"468",4016,336.378947368421,4075,143.042105263158,1.90526315789474,3738,108.063157894737,3942,4108,112.684210526316,-164.242105263158,4188,3724,-143.221052631579,54,0,1559,1771,0,4,4,4,4,4,4,4,4,4,4,4,4,4,4,4,4
"469",4007,327.663157894737,4069,139.452631578947,-4.7578947368421,3731,109.084210526316,3933,4107,110.631578947368,-163.726315789474,4181,3717,-152.452631578947,55,0,1559,1775,0,4,4,4,4,4,4,4,4,4,4,4,4,4,4,4,4
"470",4004,322.536842105263,4068,136.378947368421,-5.77894736842105,3730,109.084210526316,3926,4110,108.578947368421,-164.757894736842,4172,3713,-164.757894736842,56,0,1563,1771,0,4,4,4,4,4,4,4,4,4,4,4,4,4,4,4,4
"471",4006,328.168421052632,4072,136.894736842105,-1.68421052631579,3737,109.084210526316,3931,4118,111.652631578947,-159.631578947368,4177,3715,-156.042105263158,57,0,1555,1775,0,4,4,4,4,4,4,4,4,4,4,4,4,4,4,4,4
"472",4004,325.610526315789,4069,129.715789473684,-2.18947368421053,3731,110.115789473684,3927,4122,108.578947368421,-153.989473684211,4174,3721,-152.452631578947,58,0,1563,1775,0,4,4,4,4,4,4,4,4,4,4,4,4,4,4,4,4
"473",4002,316.378947368421,4067,118.936842105263,-5.27368421052632,3719,108.578947368421,3912,4121,95.7578947368421,-156.547368421053,4156,3722,-169.884210526316,59,0,1559,1775,0,4,4,4,4,4,4,4,4,4,4,4,4,4,4,4,4
"474",4003,316.894736842105,4073,117.915789473684,-3.72631578947368,3718,107.547368421053,3913,4118,92.1684210526316,-157.578947368421,4150,3716,-176.547368421053,60,0,1559,1775,0,4,4,4,4,4,4,4,4,4,4,4,4,4,4,4,4
"475",4008,323.042105263158,4076,127.147368421053,0.368421052631579,3726,109.084210526316,3927,4110,95.2421052631579,-154.505263157895,4162,3718,-161.684210526316,61,0,1559,1775,0,4,4,4,4,4,4,4,4,4,4,4,4,4,4,4,4
"476",4012,324.073684210526,4074,136.378947368421,0.884210526315789,3730,109.6,3928,4106,92.6842105263158,-160.652631578947,4168,3724,-156.042105263158,62,0,1559,1775,0,4,4,4,4,4,4,4,4,4,4,4,4,4,4,4,4
"477",4013,325.094736842105,4076,139.452631578947,0.368421052631579,3731,108.578947368421,3925,4115,95.7578947368421,-165.273684210526,4166,3718,-160.652631578947,63,0,1559,1771,0,4,4,4,4,4,4,4,4,4,4,4,4,4,4,4,4
"478",4012,327.147368421053,4078,140.484210526316,6.52631578947368,3733,109.6,3928,4122,106.010526315789,-159.115789473684,4166,3714,-158.094736842105,64,0,1555,1775,479,4,4,4,4,4,4,4,4,4,4,4,4,4,4,4,4
"479",4012,328.168421052632,4076,142.021052631579,12.6842105263158,3736,110.631578947368,3927,4119,108.063157894737,-156.547368421053,4168,3719,-156.547368421053,65,0,1559,1767,448,4,4,4,4,4,4,4,4,4,4,4,4,4,4,4,4
"480",4012,328.168421052632,4075,140.484210526316,12.6842105263158,3738,110.115789473684,3926,4121,107.547368421053,-158.094736842105,4168,3718,-159.631578947368,66,0,1555,1771,491,4,4,4,4,4,4,4,4,4,4,4,4,4,4,4,4
"481",4011,329.2,4078,138.431578947368,10.1157894736842,3739,107.547368421053,3928,4125,112.684210526316,-153.989473684211,4168,3716,-155.526315789474,67,0,1559,1771,504,4,4,4,4,4,4,4,4,4,4,4,4,4,4,4,4
"482",4015,332.789473684211,4086,139.968421052632,12.1684210526316,3741,109.6,3928,4126,112.684210526316,-149.368421052632,4166,3721,-156.042105263158,68,0,1555,1767,495,4,4,4,4,4,4,4,4,4,4,4,4,4,4,4,4
"483",4020,336.894736842105,4090,142.021052631579,17.2947368421053,3743,118.315789473684,3925,4129,106.526315789474,-150.4,4161,3725,-165.273684210526,69,0,1555,1771,506,4,4,4,4,4,4,4,4,4,4,4,4,4,4,4,4
"484",4020,337.4,4089,141.505263157895,18.8315789473684,3741,122.936842105263,3927,4135,107.042105263158,-146.810526315789,4157,3729,-159.631578947368,70,0,1555,1771,499,4,4,4,4,4,4,4,4,4,4,4,4,4,4,4,4
"485",4018,332.789473684211,4088,137.4,16.2736842105263,3738,120.884210526316,3925,4137,108.578947368421,-141.168421052632,4154,3733,-156.547368421053,71,0,1559,1771,416,4,4,4,4,4,4,4,4,4,4,4,4,4,4,4,4
"486",4018,332.273684210526,4090,135.347368421053,15.2421052631579,3737,121.905263157895,3918,4130,100.884210526316,-140.652631578947,4150,3731,-164.757894736842,72,0,1555,1771,465,4,4,4,4,4,4,4,4,4,4,4,4,4,4,4,4
"487",4021,337.4,4096,138.936842105263,18.3157894736842,3738,125.494736842105,3921,4128,93.7052631578947,-142.189473684211,4150,3730,-162.705263157895,73,0,1559,1771,466,4,4,4,4,4,4,4,4,4,4,4,4,4,4,4,4
"488",4019,340.484210526316,4098,140.484210526316,15.7578947368421,3738,124.473684210526,3926,4133,98.8315789473684,-145.273684210526,4151,3730,-159.115789473684,74,0,1555,1771,507,4,4,4,4,4,4,4,4,4,4,4,4,4,4,4,4
"489",4017,344.073684210526,4099,141.505263157895,15.2421052631579,3744,122.936842105263,3926,4137,108.063157894737,-147.831578947368,4151,3725,-161.168421052632,75,0,1559,1771,489,4,4,4,4,4,4,4,4,4,4,4,4,4,4,4,4
"490",4020,-338.6,4104,143.557894736842,26.0105263157895,3755,123.957894736842,3930,4137,111.136842105263,-143.726315789474,4156,3728,-155.526315789474,76,0,1555,1771,461,4,4,4,4,4,4,4,4,4,4,4,4,4,4,4,4
"491",4022,-336.042105263158,4108,139.968421052632,32.1684210526316,3754,123.957894736842,3933,4136,109.6,-140.136842105263,4154,3731,-155.526315789474,77,0,1563,1771,477,4,4,4,4,4,4,4,4,4,4,4,4,4,4,4,4
"492",4020,-338.094736842105,4107,134.326315789474,27.5473684210526,3745,124.989473684211,3929,4135,103.957894736842,-144.757894736842,4141,3724,-164.242105263158,78,0,1555,1771,507,4,4,4,4,4,4,4,4,4,4,4,4,4,4,4,4
"493",4026,-337.063157894737,4109,137.915789473684,27.0421052631579,3744,126.526315789474,3931,4135,97.8105263157895,-149.368421052632,4138,3719,-162.705263157895,79,0,1559,1775,489,4,4,4,4,4,4,4,4,4,4,4,4,4,4,4,4
"494",4030,-336.547368421053,4113,138.936842105263,30.6315789473684,3744,126.010526315789,3931,4134,94.2210526315789,-150.4,4139,3723,-159.631578947368,80,0,1559,1771,461,4,4,4,4,4,4,4,4,4,4,4,4,4,4,4,4
"495",4023,-339.631578947368,4112,126.631578947368,27.0421052631579,3736,123.957894736842,3925,4133,91.1368421052632,-147.831578947368,4126,3725,-168.347368421053,81,0,1559,1775,477,4,4,4,4,4,4,4,4,4,4,4,4,4,4,4,4
"496",4023,-341.684210526316,4114,125.094736842105,24.9894736842105,3734,124.989473684211,3923,4135,89.0842105263158,-140.652631578947,4119,3727,-175.010526315789,82,0,1559,1771,507,4,4,4,4,4,4,4,4,4,4,4,4,4,4,4,4
"497",4029,-340.652631578947,4120,137.915789473684,29.0842105263158,3738,125.494736842105,3926,4137,89.6,-136.042105263158,4125,3732,-176.547368421053,83,0,1559,1775,489,4,4,4,4,4,4,4,4,4,4,4,4,4,4,4,4
"498",4024,-340.652631578947,4121,141.505263157895,31.1368421052632,3737,125.494736842105,3926,4136,88.5789473684211,-136.547368421053,4123,3730,-175.526315789474,84,0,1559,1771,461,4,4,4,4,4,4,4,4,4,4,4,4,4,4,4,4
"499",4018,-341.684210526316,4119,134.842105263158,29.6,3734,132.684210526316,3923,4142,87.5473684210526,-135.010526315789,4117,3727,-171.421052631579,85,0,1559,1779,477,4,4,4,4,4,4,4,4,4,4,4,4,4,4,4,4
"500",4023,-338.094736842105,4124,142.536842105263,31.1368421052632,3741,140.884210526316,3931,4153,90.1157894736842,-132.957894736842,4128,3730,-164.757894736842,86,0,1563,1775,507,4,4,4,4,4,4,4,4,4,4,4,4,4,4,4,4
"501",4026,-335.526315789474,4123,154.842105263158,32.6842105263158,3749,140.884210526316,3939,4156,96.2736842105263,-135.526315789474,4140,3730,-162.705263157895,87,0,1559,1775,489,4,4,4,4,4,4,4,4,4,4,4,4,4,4,4,4
"502",4019,-341.684210526316,4113,149.715789473684,30.1157894736842,3744,139.863157894737,3935,4148,94.2210526315789,-140.136842105263,4138,3729,-161.168421052632,88,0,1563,1775,461,4,4,4,4,4,4,4,4,4,4,4,4,4,4,4,4
"503",4014,337.915789473684,4105,142.021052631579,28.0631578947368,3734,139.863157894737,3925,4143,83.4526315789474,-139.631578947368,4123,3728,-166.294736842105,89,0,1563,1771,477,4,4,4,4,4,4,4,4,4,4,4,4,4,4,4,4
"504",4012,327.663157894737,4098,137.4,27.5473684210526,3728,137.294736842105,3916,4141,77.2947368421053,-137.578947368421,4110,3727,-180.136842105263,90,0,1559,1775,507,4,4,4,4,4,4,4,4,4,4,4,4,4,4,4,4
"505",4009,318.431578947368,4093,130.736842105263,26.0105263157895,3723,136.273684210526,3909,4142,70.6315789473684,-138.6,4104,3728,-187.831578947368,91,0,1559,1775,489,4,4,4,4,4,4,4,4,4,4,4,4,4,4,4,4
"506",4005,318.431578947368,4092,125.094736842105,25.4947368421053,3723,141.4,3909,4146,60.3684210526316,-137.063157894737,4105,3732,-183.221052631579,92,0,1563,1779,461,4,4,4,4,4,4,4,4,4,4,4,4,4,4,4,4
"507",4004,321.505263157895,4091,124.578947368421,26.5263157894737,3723,142.936842105263,3910,4147,64.9894736842105,-132.452631578947,4107,3732,-180.652631578947,93,0,1559,1775,477,4,4,4,4,4,4,4,4,4,4,4,4,4,4,4,4
"508",4008,319.452631578947,4093,123.042105263158,27.0421052631579,3721,141.905263157895,3907,4146,73.1894736842105,-135.010526315789,4105,3728,-184.757894736842,94,0,1559,1779,507,4,4,4,4,4,4,4,4,4,4,4,4,4,4,4,4
"509",4012,322.021052631579,4101,129.2,29.0842105263158,3724,148.063157894737,3913,4145,69.6,-143.726315789474,4104,3726,-186.810526315789,95,0,1563,1775,489,4,4,4,4,4,4,4,4,4,4,4,4,4,4,4,4
"510",4017,327.663157894737,4110,138.936842105263,31.1368421052632,3730,156.778947368421,3924,4147,70.1157894736842,-149.368421052632,4109,3728,-179.631578947368,96,0,1559,1775,461,4,4,4,4,4,4,4,4,4,4,4,4,4,4,4,4
"511",4021,329.2,4117,144.073684210526,31.6526315789474,3734,159.863157894737,3926,4151,80.3684210526316,-149.884210526316,4119,3730,-168.863157894737,97,0,1559,1779,477,4,4,4,4,4,4,4,4,4,4,4,4,4,4,4,4
"512",4024,335.863157894737,4123,154.842105263158,33.7052631578947,3742,165.494736842105,3935,4153,85.4947368421053,-145.778947368421,4127,3729,-164.242105263158,98,0,1559,1775,507,4,4,4,4,4,4,4,4,4,4,4,4,4,4,4,4
"513",4024,-344.757894736842,4123,160.484210526316,33.1894736842105,3750,171.652631578947,3946,4157,88.0631578947368,-138.094736842105,4132,3724,-161.168421052632,99,0,1559,1775,489,4,4,4,4,4,4,4,4,4,4,4,4,4,4,4,4
"514",4014,337.915789473684,4117,145.610526315789,29.6,3741,164.989473684211,3939,4166,84.9894736842105,-133.473684210526,4127,3727,-165.778947368421,100,0,1559,1771,461,4,4,4,4,4,4,4,4,4,4,4,4,4,4,4,4
"515",4003,322.021052631579,4109,128.684210526316,27.5473684210526,3725,158.831578947368,3925,4163,71.6526315789474,-133.473684210526,4112,3735,-178.6,101,0,1559,1775,477,4,4,4,4,4,4,4,4,4,4,4,4,4,4,4,4
"516",4002,316.378947368421,4104,124.578947368421,29.0842105263158,3721,164.989473684211,3924,4153,64.9894736842105,-135.010526315789,4106,3735,-182.705263157895,102,0,1559,1771,507,4,4,4,4,4,4,4,4,4,4,4,4,4,4,4,4
"517",4010,319.452631578947,4108,123.557894736842,30.6315789473684,3722,171.652631578947,3926,4156,66.0105263157895,-135.526315789474,4111,3730,-178.6,103,0,1555,1775,489,4,4,4,4,4,4,4,4,4,4,4,4,4,4,4,4
"518",4012,323.557894736842,4118,128.168421052632,31.1368421052632,3724,172.684210526316,3927,4161,62.9368421052632,-139.631578947368,4111,3727,-179.115789473684,104,0,1563,1771,461,4,4,4,4,4,4,4,4,4,4,4,4,4,4,4,4
"519",4012,324.073684210526,4122,135.347368421053,32.1684210526316,3727,173.705263157895,3936,4155,62.9368421052632,-141.684210526316,4109,3732,-180.652631578947,105,0,1559,1775,477,4,4,4,4,4,4,4,4,4,4,4,4,4,4,4,4
"520",4012,320.484210526316,4120,129.715789473684,31.1368421052632,3725,173.189473684211,3944,4154,64.4736842105263,-142.705263157895,4110,3730,-180.652631578947,106,0,1559,1775,507,4,4,4,4,4,4,4,4,4,4,4,4,4,4,4,4
"521",4012,317.915789473684,4119,123.557894736842,29.0842105263158,3723,172.168421052632,3941,4164,63.9578947368421,-145.273684210526,4112,3718,-181.168421052632,107,0,1559,1771,489,4,4,4,4,4,4,4,4,4,4,4,4,4,4,4,4
"522",4018,324.073684210526,4123,135.863157894737,29.0842105263158,3730,179.347368421053,3948,4146,70.1157894736842,-147.315789473684,4117,3715,-179.631578947368,108,0,1559,1775,461,4,4,4,4,4,4,4,4,4,4,4,4,4,4,4,4
"523",4024,326.631578947368,4124,142.536842105263,27.5473684210526,3733,183.452631578947,3959,4096,76.7789473684211,-149.884210526316,4123,3726,-175.526315789474,109,0,1559,1771,477,4,4,4,4,4,4,4,4,4,4,4,4,4,4,4,4
"524",4023,322.536842105263,4122,129.2,27.0421052631579,3725,181.4,3957,4070,67.5473684210526,-147.315789473684,4121,3732,-170.4,110,0,1559,1775,507,4,4,4,4,4,4,4,4,4,4,4,4,4,4,4,4
"525",4018,320.484210526316,4119,122.536842105263,26.5263157894737,3721,182.936842105263,3954,4083,61.9052631578947,-141.168421052632,4121,3728,-163.726315789474,111,0,1559,1771,489,4,4,4,4,4,4,4,4,4,4,4,4,4,4,4,4
"526",4010,317.4,4118,124.073684210526,18.8315789473684,3718,187.042105263158,3956,4085,65.4947368421053,-143.221052631579,4121,3725,-166.294736842105,112,0,1559,1771,461,4,4,4,4,4,4,4,4,4,4,4,4,4,4,4,4
"527",4005,310.736842105263,4118,122.536842105263,11.6526315789474,3713,186.010526315789,3952,4073,56.2736842105263,-149.368421052632,4109,3723,-179.115789473684,113,0,1559,1775,477,4,4,4,4,4,4,4,4,4,4,4,4,4,4,4,4
"528",4008,307.663157894737,4113,120.989473684211,13.1894736842105,3711,186.010526315789,3951,4073,44.9894736842105,-148.347368421053,4101,3722,-186.810526315789,114,0,1563,1771,507,4,4,4,4,4,4,4,4,4,4,4,4,4,4,4,4
"529",4008,309.715789473684,4113,120.989473684211,17.8105263157895,3714,188.578947368421,3957,4079,48.0631578947368,-146.810526315789,4106,3726,-184.757894736842,115,0,1555,1771,489,4,4,4,4,4,4,4,4,4,4,4,4,4,4,4,4
"530",4001,308.684210526316,4118,119.968421052632,19.3473684210526,3714,189.084210526316,3956,4086,50.1157894736842,-140.652631578947,4106,3730,-180.652631578947,116,0,1563,1775,461,4,4,4,4,4,4,4,4,4,4,4,4,4,4,4,4
"531",4000,307.147368421053,4121,117.915789473684,22.4210526315789,3711,191.136842105263,3953,4091,46.5263157894737,-133.989473684211,4098,3727,-185.273684210526,117,0,1559,1771,477,4,4,4,4,4,4,4,4,4,4,4,4,4,4,4,4
"532",4008,315.347368421053,4118,120.989473684211,27.5473684210526,3712,193.705263157895,3955,4088,44.9894736842105,-143.221052631579,4098,3725,-187.315789473684,118,0,1559,1771,507,4,4,4,4,4,4,4,4,4,4,4,4,4,4,4,4
"533",4022,328.168421052632,4125,129.715789473684,29.6,3722,197.810526315789,3962,4090,50.1157894736842,-149.884210526316,4109,3730,-178.094736842105,119,0,1559,1771,489,4,4,4,4,4,4,4,4,4,4,4,4,4,4,4,4
"534",4035,337.4,4134,137.4,33.7052631578947,3735,204.989473684211,3972,4094,58.3157894736842,-145.778947368421,4116,3732,-166.294736842105,120,0,1559,1771,461,4,4,4,4,4,4,4,4,4,4,4,4,4,4,4,4
"535",4047,342.536842105263,4138,143.557894736842,42.9368421052632,3748,210.115789473684,3985,4091,61.4,-151.936842105263,4121,3730,-163.726315789474,121,0,1559,1771,477,4,4,4,4,4,4,4,4,4,4,4,4,4,4,4,4
"536",4057,-340.136842105263,4146,152.789473684211,49.0842105263158,3754,214.221052631579,3995,4090,61.4,-157.578947368421,4129,3731,-163.726315789474,122,0,1559,1775,507,4,4,4,4,4,4,4,4,4,4,4,4,4,4,4,4
"537",4064,-336.042105263158,4155,159.452631578947,46.5263157894737,3758,219.347368421053,3999,4093,66.5263157894737,-152.452631578947,4139,3733,-150.4,123,0,1559,1771,489,4,4,4,4,4,4,4,4,4,4,4,4,4,4,4,4
"538",4064,-341.684210526316,4149,155.863157894737,44.4736842105263,3763,218.831578947368,3997,4094,70.1157894736842,-157.063157894737,4143,3729,-137.063157894737,124,0,1555,1775,461,4,4,4,4,4,4,4,4,4,4,4,4,4,4,4,4
"539",4057,337.4,4139,145.094736842105,46.5263157894737,3759,218.315789473684,3991,4096,64.9894736842105,-160.652631578947,4137,3729,-144.757894736842,125,0,1559,1775,477,4,4,4,4,4,4,4,4,4,4,4,4,4,4,4,4
"540",4053,333.305263157895,4143,139.968421052632,45.4947368421053,3752,225.494736842105,3982,4104,61.9052631578947,-145.273684210526,4132,3738,-157.578947368421,126,0,1555,1771,507,4,4,4,4,4,4,4,4,4,4,4,4,4,4,4,4
"541",4056,334.326315789474,4146,140.484210526316,48.0631578947368,3755,232.168421052632,3976,4109,64.9894736842105,-134.505263157895,4135,3745,-157.063157894737,127,0,1559,1775,489,4,4,4,4,4,4,4,4,4,4,4,4,4,4,4,4
"542",4049,325.610526315789,4138,132.273684210526,45.4947368421053,3753,228.063157894737,3973,4109,67.0421052631579,-138.6,4132,3742,-155.010526315789,128,0,1559,1771,461,4,4,4,4,4,4,4,4,4,4,4,4,4,4,4,4
"543",4034,310.736842105263,4136,119.452631578947,34.7263157894737,3737,223.452631578947,3962,4108,56.7789473684211,-139.631578947368,4123,3737,-163.726315789474,0,0,1555,1771,479,4,4,4,4,4,4,4,4,4,4,4,4,4,4,4,4
"544",4034,304.578947368421,4137,119.452631578947,32.6842105263158,3728,225.494736842105,3954,4103,44.9894736842105,-136.547368421053,4118,3743,-172.452631578947,1,0,1559,1771,448,4,4,4,4,4,4,4,4,4,4,4,4,4,4,4,4
"545",4044,308.684210526316,4139,126.126315789474,38.3157894736842,3731,228.578947368421,3959,4101,52.6842105263158,-142.189473684211,4126,3748,-164.242105263158,2,0,1559,1775,491,4,4,4,4,4,4,4,4,4,4,4,4,4,4,4,4
"546",4041,305.610526315789,4138,124.578947368421,35.2421052631579,3723,227.547368421053,3957,4103,62.4210526315789,-149.884210526316,4130,3742,-153.473684210526,3,0,1559,1767,504,4,4,4,4,4,4,4,4,4,4,4,4,4,4,4,4
"547",4029,296.378947368421,4137,120.484210526316,26.5263157894737,3703,224.473684210526,3943,4099,53.1894736842105,-150.915789473684,4123,3738,-163.221052631579,4,0,1559,1771,495,4,4,4,4,4,4,4,4,4,4,4,4,4,4,4,4
"548",4027,292.789473684211,4138,119.968421052632,29.0842105263158,3696,227.042105263158,3939,4096,47.0421052631579,-149.884210526316,4116,3738,-171.936842105263,5,0,1563,1771,506,4,4,4,4,4,4,4,4,4,4,4,4,4,4,4,4
"549",4029,292.789473684211,4139,121.505263157895,30.6315789473684,3700,227.042105263158,3944,4102,57.8105263157895,-147.315789473684,4126,3737,-163.221052631579,6,0,1555,1771,499,4,4,4,4,4,4,4,4,4,4,4,4,4,4,4,4
"550",4026,290.221052631579,4137,121.505263157895,19.3473684210526,3699,219.863157894737,3944,4112,63.9578947368421,-140.652631578947,4136,3737,-157.578947368421,7,0,1559,1771,416,4,4,4,4,4,4,4,4,4,4,4,4,4,4,4,4
"551",4025,290.221052631579,4137,126.126315789474,14.2210526315789,3701,219.863157894737,3948,4118,62.4210526315789,-140.652631578947,4137,3739,-156.547368421053,8,0,1559,1771,466,4,4,4,4,4,4,4,4,4,4,4,4,4,4,4,4
"552",4029,293.810526315789,4146,136.378947368421,23.4526315789474,3705,228.063157894737,3956,4126,65.4947368421053,-143.726315789474,4139,3738,-149.884210526316,9,0,1559,1771,466,4,4,4,4,4,4,4,4,4,4,4,4,4,4,4,4
"553",4033,294.326315789474,4154,140.989473684211,29.0842105263158,3703,229.6,3956,4136,66.5263157894737,-140.652631578947,4139,3740,-152.957894736842,10,0,1555,1771,507,4,4,4,4,4,4,4,4,4,4,4,4,4,4,4,4
"554",4032,294.326315789474,4155,138.936842105263,22.4210526315789,3704,226.526315789474,3956,4139,62.9368421052632,-139.631578947368,4142,3745,-152.452631578947,11,0,1563,1775,489,4,4,4,4,4,4,4,4,4,4,4,4,4,4,4,4
"555",4029,296.894736842105,4155,139.968421052632,18.8315789473684,3709,227.547368421053,3960,4137,68.5789473684211,-146.294736842105,4151,3746,-137.063157894737,12,0,1563,1771,461,4,4,4,4,4,4,4,4,4,4,4,4,4,4,4,4
"556",4028,297.915789473684,4158,143.557894736842,18.8315789473684,3706,230.115789473684,3959,4141,74.7263157894737,-151.421052631579,4154,3745,-135.526315789474,13,0,1555,1775,477,4,4,4,4,4,4,4,4,4,4,4,4,4,4,4,4
"557",4024,290.221052631579,4155,138.936842105263,14.2210526315789,3699,227.042105263158,3956,4144,68.0631578947368,-145.273684210526,4148,3744,-150.4,14,0,1563,1771,507,4,4,4,4,4,4,4,4,4,4,4,4,4,4,4,4
"558",4013,280.484210526316,4146,126.631578947368,11.6526315789474,3697,220.884210526316,3955,4140,61.4,-140.652631578947,4147,3745,-152.957894736842,15,0,1559,1771,489,4,4,4,4,4,4,4,4,4,4,4,4,4,4,4,4
"559",4009,280.989473684211,4139,122.536842105263,12.6842105263158,3700,218.831578947368,3954,4144,69.6,-147.831578947368,4150,3746,-147.831578947368,16,0,1559,1771,0,4,4,4,4,4,4,4,4,4,4,4,4,4,4,4,4
"560",4014,289.2,4140,126.126315789474,12.6842105263158,3708,224.473684210526,3955,4155,79.8631578947368,-148.863157894737,4155,3745,-150.915789473684,17,0,1559,1771,0,4,4,4,4,4,4,4,4,4,4,4,4,4,4,4,4
"561",4014,292.273684210526,4147,125.094736842105,12.1684210526316,3715,228.063157894737,3964,4160,78.8315789473684,-141.168421052632,4165,3744,-146.810526315789,18,0,1559,1771,0,4,4,4,4,4,4,4,4,4,4,4,4,4,4,4,4
"562",4012,292.789473684211,4146,127.147368421053,13.1894736842105,3719,228.063157894737,3970,4158,77.8105263157895,-144.757894736842,4169,3742,-135.010526315789,19,0,1559,1771,0,4,4,4,4,4,4,4,4,4,4,4,4,4,4,4,4
"563",4015,298.431578947368,4145,136.894736842105,13.1894736842105,3724,225.494736842105,3972,4154,78.8315789473684,-149.884210526316,4167,3739,-133.473684210526,20,0,1563,1771,0,4,4,4,4,4,4,4,4,4,4,4,4,4,4,4,4
"564",4016,304.073684210526,4150,139.452631578947,12.1684210526316,3730,224.473684210526,3980,4151,77.2947368421053,-150.915789473684,4170,3739,-135.010526315789,21,0,1559,1771,0,4,4,4,4,4,4,4,4,4,4,4,4,4,4,4,4
"565",4023,311.252631578947,4154,136.894736842105,13.7052631578947,3739,233.189473684211,3990,4155,83.4526315789474,-160.136842105263,4182,3739,-127.831578947368,22,0,1559,1767,0,4,4,4,4,4,4,4,4,4,4,4,4,4,4,4,4
"566",4029,320.484210526316,4153,145.610526315789,16.2736842105263,3751,240.368421052632,3996,4156,95.7578947368421,-164.242105263158,4196,3738,-113.989473684211,23,0,1559,1771,0,4,4,4,4,4,4,4,4,4,4,4,4,4,4,4,4
"567",4025,323.557894736842,4154,157.4,15.2421052631579,3755,235.242105263158,4003,4153,98.8315789473684,-154.505263157895,4203,3747,-104.757894736842,24,0,1563,1767,0,4,4,4,4,4,4,4,4,4,4,4,4,4,4,4,4
"568",4018,320.484210526316,4150,153.810526315789,13.1894736842105,3754,231.652631578947,4007,4153,96.778947368421,-149.368421052632,4203,3755,-106.294736842105,25,0,1555,1771,0,4,4,4,4,4,4,4,4,4,4,4,4,4,4,4,4
"569",4021,318.936842105263,4140,143.042105263158,13.1894736842105,3753,235.242105263158,4001,4156,96.2736842105263,-150.4,4202,3749,-114.505263157895,26,0,1563,1771,0,4,4,4,4,4,4,4,4,4,4,4,4,4,4,4,4
"570",4019,320.989473684211,4135,140.484210526316,14.2210526315789,3748,233.705263157895,3996,4156,94.7263157894737,-148.863157894737,4197,3741,-121.168421052632,27,0,1559,1771,0,4,4,4,4,4,4,4,4,4,4,4,4,4,4,4,4
"571",4012,318.431578947368,4138,142.021052631579,12.1684210526316,3743,230.115789473684,3996,4152,89.0842105263158,-147.315789473684,4191,3745,-125.273684210526,28,0,1559,1771,0,4,4,4,4,4,4,4,4,4,4,4,4,4,4,4,4
"572",4014,318.936842105263,4141,138.936842105263,10.1157894736842,3748,232.684210526316,4000,4154,88.0631578947368,-146.294736842105,4192,3747,-127.315789473684,29,0,1559,1771,0,4,4,4,4,4,4,4,4,4,4,4,4,4,4,4,4
