"","AF3","AF4","F3","F4","F7","F8","FC5","FC6","O1","O2","P7","P8","T7","T8","COUNTER","INTERPOLATED","GYROX","GYROY","RAW_CQ","CQ_CMS","CQ_F7","CQ_T7","CQ_O2","CQ_FC6","CQ_AF4","CQ_F3","CQ_P7","CQ_P8","CQ_F4","CQ_AF3","CQ_FC5","CQ_O1","CQ_T8","CQ_F8","CQ_DRL"
"1",3908,61.5052631578947,4385,-57.4631578947368,234.221052631579,3701,90.6315789473684,3864,4249,-45.7789473684211,-180.652631578947,4030,3709,-289.368421052632,31,0,1559,1771,0,4,4,4,4,4,4,3,4,4,4,4,4,4,4,4,4
"2",3899,47.1473684210526,4388,-62.6,230.631578947368,3692,92.6842105263158,3854,4248,-53.4736842105263,-178.6,4024,3709,-295.526315789474,32,0,1555,1771,0,4,4,4,4,4,4,3,4,4,4,4,4,4,4,4,4
"3",3890,30.7368421052632,4385,-73.3684210526316,221.4,3676,87.5473684210526,3851,4250,-67.3157894736842,-180.652631578947,4011,3706,-309.368421052632,33,0,1559,1771,0,4,4,4,4,4,4,3,4,4,4,4,4,4,4,4,4
"4",3883,27.6631578947368,4380,-93.8736842105263,210.631578947368,3658,87.0421052631579,3812,4248,-89.8842105263158,-183.221052631579,3984,3706,-331.421052631579,34,0,1555,1771,0,4,4,4,4,4,4,3,4,4,4,4,4,4,4,4,4
"5",3881,27.6631578947368,4382,-117.978947368421,208.578947368421,3643,91.6526315789474,3738,4249,-115.010526315789,-181.168421052632,3952,3708,331.252631578947,35,0,1555,1775,0,4,4,4,4,4,4,3,4,4,4,4,4,4,4,4,4
"6",3881,27.6631578947368,4384,-131.831578947368,207.547368421053,3633,92.1684210526316,3698,4252,-129.884210526316,-182.705263157895,3937,3708,315.863157894737,36,0,1555,1771,0,4,4,4,4,4,4,3,4,4,4,4,4,4,4,4,4
"7",3882,40.9894736842105,4374,-129.263157894737,203.957894736842,3637,91.1368421052632,3706,4250,-127.315789473684,-189.884210526316,3941,3707,321.505263157895,37,0,1555,1775,0,4,4,4,4,4,4,3,4,4,4,4,4,4,4,4,4
"8",3873,50.2210526315789,4372,-122.6,197.810526315789,3639,91.6526315789474,3709,4250,-124.242105263158,-195.526315789474,3945,3705,324.073684210526,38,0,1559,1771,0,4,4,4,4,4,4,3,4,4,4,4,4,4,4,4,4
"9",3865,41.5052631578947,4372,-131.315789473684,192.168421052632,3630,93.7052631578947,3695,4250,-135.010526315789,-194.505263157895,3934,3702,312.273684210526,39,0,1555,1771,0,4,4,4,4,4,4,3,4,4,4,4,4,4,4,4,4
"10",3860,26.1263157894737,4367,-146.189473684211,183.452631578947,3614,90.6315789473684,3683,4248,-149.884210526316,-197.063157894737,3914,3700,297.4,40,0,1559,1771,0,4,4,4,4,4,4,3,4,4,4,4,4,4,4,4,4
"11",3845,7.66315789473684,4361,-163.105263157895,169.6,3593,83.9578947368421,3664,4245,-169.884210526316,-206.810526315789,3891,3696,277.915789473684,41,0,1559,1771,0,4,4,4,4,4,4,3,4,4,4,4,4,4,4,4,4
"12",3828,-12.3368421052632,4358,-177.978947368421,157.294736842105,3571,78.3157894736842,3648,4245,-190.4,-212.957894736842,3873,3691,258.431578947368,42,0,1559,1771,0,4,4,4,4,4,4,3,4,4,4,4,4,4,4,4,4
"13",3827,-24.6526315789474,4357,-188.747368421053,147.042105263158,3558,76.7789473684211,3638,4247,-201.684210526316,-211.936842105263,3859,3691,245.610526315789,43,0,1555,1771,0,4,4,4,4,4,4,3,4,4,4,4,4,4,4,4,4
"14",3832,-24.6526315789474,4353,-185.157894736842,144.989473684211,3559,84.4736842105263,3635,4246,-196.042105263158,-211.421052631579,3861,3696,248.168421052632,44,0,1559,1775,0,4,4,4,4,4,4,3,4,4,4,4,4,4,4,4,4
"15",3823,-25.6736842105263,4353,-181.568421052632,142.936842105263,3561,87.5473684210526,3636,4247,-197.063157894737,-212.957894736842,3863,3693,250.736842105263,45,0,1559,1767,0,4,4,4,4,4,4,3,4,4,4,4,4,4,4,4,4
"16",3816,-29.2631578947368,4349,-189.778947368421,136.778947368421,3556,79.3473684210526,3633,4246,-209.368421052632,-215.526315789474,3851,3684,239.968421052632,46,0,1555,1775,0,4,4,4,4,4,4,3,4,4,4,4,4,4,4,4,4
"17",3820,-28.7473684210526,4348,-189.778947368421,133.705263157895,3554,78.8315789473684,3632,4246,-208.863157894737,-215.010526315789,3848,3684,237.4,47,0,1559,1771,0,4,4,4,4,4,4,3,4,4,4,4,4,4,4,4,4
"18",3821,-25.6736842105263,4348,-179.010526315789,137.294736842105,3559,92.1684210526316,3637,4247,-202.189473684211,-216.042105263158,3859,3687,247.147368421053,48,0,1555,1775,0,4,4,4,4,4,4,3,4,4,4,4,4,4,4,4,4
"19",3817,-30.2842105263158,4345,-181.063157894737,133.705263157895,3557,91.1368421052632,3637,4246,-207.315789473684,-222.705263157895,3855,3684,243.557894736842,49,0,1559,1771,0,4,4,4,4,4,4,3,4,4,4,4,4,4,4,4,4
"20",3816,-40.0315789473684,4340,-194.905263157895,123.957894736842,3543,82.9368421052632,3624,4243,-220.136842105263,-228.347368421053,3837,3682,225.094736842105,50,0,1555,1771,0,4,4,4,4,4,4,3,4,4,4,4,4,4,4,4,4
"21",3815,-45.6736842105263,4336,-199.515789473684,118.831578947368,3532,87.5473684210526,3613,4237,-225.778947368421,-226.294736842105,3831,3684,219.968421052632,51,0,1559,1771,0,4,4,4,4,4,4,3,4,4,4,4,4,4,4,4,4
"22",3806,-54.9052631578947,4337,-205.673684210526,114.221052631579,3528,86.5263157894737,3605,4235,-232.957894736842,-226.294736842105,3826,3682,216.378947368421,52,0,1555,1771,0,4,4,4,4,4,4,3,4,4,4,4,4,4,4,4,4
"23",3801,-65.1578947368421,4335,-214.389473684211,108.578947368421,3520,78.3157894736842,3597,4237,-240.136842105263,-227.831578947368,3814,3682,205.610526315789,53,0,1559,1771,0,4,4,4,4,4,4,3,4,4,4,4,4,4,4,4,4
"24",3797,-72.8526315789474,4330,-221.063157894737,98.8315789473684,3508,78.8315789473684,3585,4234,-248.347368421053,-226.810526315789,3802,3681,196.378947368421,54,0,1555,1767,0,4,4,4,4,4,4,3,4,4,4,4,4,4,4,4,4
"25",3792,-74.3894736842105,4319,-227.210526315789,92.6842105263158,3506,81.9052631578947,3579,4230,-257.063157894737,-228.347368421053,3796,3675,189.715789473684,55,0,1555,1775,0,4,4,4,4,4,4,3,4,4,4,4,4,4,4,4,4
"26",3786,-80.5473684210526,4317,-229.263157894737,92.1684210526316,3505,78.8315789473684,3583,4231,-258.6,-231.421052631579,3798,3676,187.663157894737,56,0,1555,1771,0,4,4,4,4,4,4,3,4,4,4,4,4,4,4,4,4
"27",3781,-86.6947368421053,4315,-228.747368421053,86.5263157894737,3497,80.8842105263158,3579,4231,-258.094736842105,-231.421052631579,3796,3681,187.147368421053,57,0,1551,1771,0,4,4,4,4,4,4,3,4,4,4,4,4,4,4,4,4
"28",3778,-82.0842105263158,4312,-226.694736842105,78.8315789473684,3495,89.0842105263158,3573,4230,-258.094736842105,-229.884210526316,3793,3677,188.684210526316,58,0,1555,1771,0,4,4,4,4,4,4,3,4,4,4,4,4,4,4,4,4
"29",3774,-79.5157894736842,4310,-225.673684210526,80.8842105263158,3499,92.6842105263158,3576,4228,-257.578947368421,-234.505263157895,3794,3674,188.684210526316,59,0,1555,1775,0,4,4,4,4,4,4,3,4,4,4,4,4,4,4,4,4
"30",3767,-87.2105263157895,4306,-228.242105263158,77.8105263157895,3496,90.1157894736842,3575,4222,-259.115789473684,-241.684210526316,3791,3677,184.073684210526,60,0,1551,1771,0,4,4,4,4,4,4,3,4,4,4,4,4,4,4,4,4
"31",3758,-95.9263157894737,4305,-239.515789473684,63.9578947368421,3485,91.1368421052632,3562,4218,-270.915789473684,-242.705263157895,3775,3678,170.221052631579,61,0,1551,1775,0,4,4,4,4,4,4,3,4,4,4,4,4,4,4,4,4
"32",3756,-99.0105263157895,4304,-247.726315789474,56.2736842105263,3476,90.1157894736842,3552,4219,-282.705263157895,-242.705263157895,3764,3673,158.431578947368,62,0,1551,1775,0,4,4,4,4,4,4,3,4,4,4,4,4,4,4,4,4
"33",3745,-109.778947368421,4299,-255.421052631579,47.0421052631579,3464,81.4,3543,4218,-292.957894736842,-244.242105263158,3755,3668,148.684210526316,63,0,1555,1771,0,4,4,4,4,4,4,3,4,4,4,4,4,4,4,4,4
"34",3725,-131.831578947368,4290,-270.284210526316,29.6,3447,76.2736842105263,3526,4215,-308.863157894737,-248.863157894737,3738,3666,133.810526315789,64,0,1551,1771,357,4,4,4,4,4,4,3,4,4,4,4,4,4,4,4,4
"35",3712,-149.778947368421,4290,-283.621052631579,15.2421052631579,3432,74.2210526315789,3513,4215,-324.757894736842,-256.042105263158,3719,3666,118.431578947368,65,0,1551,1775,498,4,4,4,4,4,4,3,4,4,4,4,4,4,4,4,4
"36",3709,-152.336842105263,4287,-289.263157894737,8.57894736842105,3429,72.1684210526316,3510,4211,-326.294736842105,-259.115789473684,3713,3666,112.273684210526,66,0,1555,1767,534,4,4,4,4,4,4,3,4,4,4,4,4,4,4,4,4
"37",3708,-154.389473684211,4287,-289.263157894737,0.884210526315789,3432,73.7052631578947,3511,4205,-323.726315789474,-256.547368421053,3717,3665,112.273684210526,67,0,1551,1775,555,4,4,4,4,4,4,3,4,4,4,4,4,4,4,4,4
"38",3702,-168.242105263158,4288,-299.010526315789,-6.81052631578947,3419,72.6842105263158,3498,4204,-336.547368421053,-257.578947368421,3703,3664,99.4526315789474,68,0,1555,1771,503,4,4,4,4,4,4,3,4,4,4,4,4,4,4,4,4
"39",3691,-183.621052631579,4283,-317.463157894737,-10.9157894736842,3396,63.4526315789474,3478,4201,332.273684210526,-262.18947368421,3678,3662,77.9157894736842,69,0,1551,1771,473,4,4,4,4,4,4,3,4,4,4,4,4,4,4,4,4
"40",3682,-195.926315789474,4277,-329.778947368421,-15.0105263157895,3381,58.3157894736842,3467,4199,317.915789473684,-261.684210526316,3667,3658,63.5578947368421,70,0,1551,1771,437,4,4,4,4,4,4,3,4,4,4,4,4,4,4,4,4
"41",3675,-197.978947368421,4278,-327.210526315789,-22.7052631578947,3383,60.3684210526316,3466,4197,318.431578947368,-261.684210526316,3667,3654,62.0210526315789,71,0,1551,1771,587,4,4,4,4,4,4,3,4,4,4,4,4,4,4,4,4
"42",3663,-201.063157894737,4279,-327.726315789474,-34.5052631578947,3378,59.8631578947368,3459,4192,316.894736842105,-268.863157894737,3662,3653,58.9368421052632,72,0,1555,1775,634,4,4,4,4,4,4,3,4,4,4,4,4,4,4,4,4
"43",3654,-211.315789473684,4269,-339.515789473684,-42.1894736842105,3369,57.8105263157895,3454,4186,308.168421052632,-275.526315789474,3654,3652,51.2526315789474,73,0,1551,1775,621,4,4,4,4,4,4,3,4,4,4,4,4,4,4,4,4
"44",3648,-221.063157894737,4263,341.105263157895,-48.8631578947368,3362,57.8105263157895,3450,4186,298.936842105263,-276.547368421053,3646,3651,45.6105263157895,74,0,1555,1775,586,4,4,4,4,4,4,3,4,4,4,4,4,4,4,4,4
"45",3645,-223.621052631579,4263,340.073684210526,-54.5052631578947,3361,58.8315789473684,3446,4186,294.842105263158,-276.547368421053,3642,3650,44.5789473684211,75,0,1559,1771,557,4,4,4,4,4,4,3,4,4,4,4,4,4,4,4,4
"46",3648,-223.621052631579,4265,-344.136842105263,-57.5789473684211,3361,61.9052631578947,3448,4184,297.915789473684,-277.578947368421,3648,3651,46.6315789473684,76,0,1551,1775,568,4,4,4,4,4,4,3,4,4,4,4,4,4,4,4,4
"47",3646,-227.210526315789,4265,-343.621052631579,-58.6,3362,63.4526315789474,3449,4185,297.915789473684,-278.6,3648,3650,45.6105263157895,77,0,1559,1775,583,4,4,4,4,4,4,3,4,4,4,4,4,4,4,4,4
"48",3636,-231.831578947368,4263,341.105263157895,-58.6,3360,61.9052631578947,3446,4185,291.252631578947,-279.115789473684,3637,3650,42.0210526315789,78,0,1555,1771,586,4,4,4,4,4,4,3,4,4,4,4,4,4,4,4,4
"49",3634,-231.315789473684,4262,341.105263157895,-59.1157894736842,3357,69.6,3447,4186,287.663157894737,-278.6,3634,3651,42.0210526315789,79,0,1555,1775,557,4,4,4,4,4,4,3,4,4,4,4,4,4,4,4,4
"50",3640,-229.778947368421,4263,-344.136842105263,-60.1368421052632,3355,79.3473684210526,3449,4187,291.252631578947,-282.705263157895,3641,3652,43.5578947368421,80,0,1555,1775,568,4,4,4,4,4,4,3,4,4,4,4,4,4,4,4,4
"51",3637,-241.568421052632,4261,338.021052631579,-69.3684210526316,3347,74.2210526315789,3438,4184,283.557894736842,-291.421052631579,3633,3649,35.8631578947368,81,0,1563,1771,583,4,4,4,4,4,4,3,4,4,4,4,4,4,4,4,4
"52",3632,-250.284210526316,4252,329.821052631579,-77.0631578947368,3343,68.0631578947368,3433,4181,275.347368421053,-293.989473684211,3624,3646,27.1473684210526,82,0,1555,1767,586,4,4,4,4,4,4,3,4,4,4,4,4,4,4,4,4
"53",3633,-249.263157894737,4248,333.926315789474,-82.1894736842105,3345,73.7052631578947,3437,4183,277.915789473684,-293.989473684211,3627,3647,28.1684210526316,83,0,1555,1775,557,4,4,4,4,4,4,3,4,4,4,4,4,4,4,4,4
"54",3636,-250.8,4249,335.463157894737,-84.7578947368421,3339,78.8315789473684,3436,4186,277.4,-295.010526315789,3627,3648,31.7578947368421,84,0,1559,1771,568,4,4,4,4,4,4,3,4,4,4,4,4,4,4,4,4
"55",3631,-259.515789473684,4249,329.821052631579,-87.3157894736842,3329,75.7578947368421,3430,4184,269.2,-296.042105263158,3621,3642,26.1263157894737,85,0,1555,1771,583,4,4,4,4,4,4,3,4,4,4,4,4,4,4,4,4
"56",3623,-269.778947368421,4247,323.663157894737,-90.9157894736842,3329,74.7263157894737,3429,4184,264.578947368421,-302.18947368421,3613,3637,17.4,86,0,1555,1771,586,4,4,4,4,4,4,3,4,4,4,4,4,4,4,4,4
"57",3619,-277.978947368421,4247,319.052631578947,-99.6315789473684,3329,73.7052631578947,3425,4185,264.073684210526,-307.831578947368,3607,3639,13.3052631578947,87,0,1555,1775,557,4,4,4,4,4,4,3,4,4,4,4,4,4,4,4,4
"58",3611,-284.136842105263,4245,314.431578947368,-109.884210526316,3317,73.1894736842105,3417,4186,256.894736842105,-307.831578947368,3604,3639,9.2,88,0,1559,1771,568,4,4,4,4,4,4,3,4,4,4,4,4,4,4,4,4
"59",3604,-286.694736842105,4244,316.484210526316,-111.421052631579,3313,75.7578947368421,3420,4187,254.842105263158,-305.778947368421,3605,3640,9.2,89,0,1551,1775,583,4,4,4,4,4,4,3,4,4,4,4,4,4,4,4,4
"60",3607,-289.778947368421,4247,318.536842105263,-108.347368421053,3317,79.8631578947368,3421,4190,256.894736842105,-302.705263157895,3606,3642,13.3052631578947,90,0,1559,1775,586,4,4,4,4,4,4,3,4,4,4,4,4,4,4,4,4
"61",3609,-291.315789473684,4248,318.536842105263,-108.347368421053,3316,84.9894736842105,3419,4190,255.863157894737,-302.18947368421,3605,3641,14.8421052631579,91,0,1555,1771,557,4,4,4,4,4,4,3,4,4,4,4,4,4,4,4,4
"62",3606,-289.778947368421,4245,317.515789473684,-115.526315789474,3313,89.6,3421,4187,254.326315789474,-305.778947368421,3606,3636,8.16842105263158,92,0,1555,1775,568,4,4,4,4,4,4,3,4,4,4,4,4,4,4,4,4
"63",3607,-289.778947368421,4238,319.052631578947,-117.063157894737,3315,90.6315789473684,3423,4187,255.863157894737,-307.315789473684,3606,3635,5.61052631578947,93,0,1555,1775,583,4,4,4,4,4,4,3,4,4,4,4,4,4,4,4,4
"64",3604,-302.084210526316,4235,312.389473684211,-118.094736842105,3309,84.4736842105263,3414,4188,247.147368421053,-306.810526315789,3597,3636,-0.547368421052632,94,0,1555,1775,586,4,4,4,4,4,4,3,4,4,4,4,4,4,4,4,4
"65",3595,-313.368421052632,4233,300.073684210526,-129.368421052632,3293,79.3473684210526,3401,4186,232.789473684211,-309.884210526316,3586,3636,-13.8736842105263,95,0,1555,1775,557,4,4,4,4,4,4,3,4,4,4,4,4,4,4,4,4
"66",3591,-311.831578947368,4232,298.536842105263,-137.063157894737,3286,79.3473684210526,3403,4186,231.757894736842,-309.884210526316,3585,3636,-16.9578947368421,96,0,1555,1775,568,4,4,4,4,4,4,3,4,4,4,4,4,4,4,4,4
"67",3592,-313.873684210526,4228,299.568421052632,-133.473684210526,3286,80.3684210526316,3403,4185,234.326315789474,-311.936842105263,3581,3636,-14.9052631578947,97,0,1559,1775,583,4,4,4,4,4,4,3,4,4,4,4,4,4,4,4,4
"68",3589,-323.105263157895,4227,295.463157894737,-135.526315789474,3284,77.8105263157895,3395,4186,229.2,-317.063157894737,3573,3636,-18.4947368421053,98,0,1555,1775,586,4,4,4,4,4,4,3,4,4,4,4,4,4,4,4,4
"69",3580,-328.242105263158,4227,288.789473684211,-143.221052631579,3280,77.2947368421053,3391,4187,221.505263157895,-313.989473684211,3571,3636,-24.1368421052632,99,0,1555,1775,557,4,4,4,4,4,4,3,4,4,4,4,4,4,4,4,4
"70",3573,-327.726315789474,4225,289.821052631579,-143.221052631579,3281,80.8842105263158,3395,4188,222.536842105263,-307.831578947368,3575,3636,-20.5473684210526,100,0,1555,1775,568,4,4,4,4,4,4,3,4,4,4,4,4,4,4,4,4
"71",3572,-335.926315789474,4226,288.789473684211,-145.778947368421,3278,82.4210526315789,3395,4192,223.042105263158,-309.368421052632,3573,3637,-20.0315789473684,101,0,1555,1775,583,4,4,4,4,4,4,3,4,4,4,4,4,4,4,4,4
"72",3573,344.694736842105,4223,284.694736842105,-150.915789473684,3273,81.4,3392,4197,219.452631578947,-310.915789473684,3565,3636,-26.1894736842105,102,0,1559,1775,586,4,4,4,4,4,4,3,4,4,4,4,4,4,4,4,4
"73",3567,339.052631578947,4219,281.610526315789,-155.526315789474,3267,78.8315789473684,3389,4195,215.347368421053,-309.368421052632,3562,3636,-31.8315789473684,103,0,1555,1771,557,4,4,4,4,4,4,3,4,4,4,4,4,4,4,4,4
"74",3557,332.389473684211,4218,273.410526315789,-161.684210526316,3259,78.3157894736842,3381,4187,208.684210526316,-308.863157894737,3558,3638,-38.4947368421053,104,0,1555,1779,568,4,4,4,4,4,4,3,4,4,4,4,4,4,4,4,4
"75",3554,324.694736842105,4219,265.2,-171.421052631579,3249,76.7789473684211,3372,4185,199.452631578947,-310.915789473684,3547,3634,-47.7263157894737,105,0,1559,1771,583,4,4,4,4,4,4,3,4,4,4,4,4,4,4,4,4
"76",3556,320.589473684211,4211,262.642105263158,-178.094736842105,3242,74.2210526315789,3365,4187,190.221052631579,-318.094736842105,3539,3625,-55.9263157894737,106,0,1555,1775,586,4,4,4,4,4,4,3,4,4,4,4,4,4,4,4,4
"77",3553,316.484210526316,4209,263.157894736842,-178.6,3237,73.7052631578947,3361,4186,186.631578947368,-321.684210526316,3541,3622,-58.4947368421053,107,0,1559,1775,557,4,4,4,4,4,4,3,4,4,4,4,4,4,4,4,4
"78",3546,311.873684210526,4213,258.536842105263,-179.631578947368,3235,72.1684210526316,3361,4184,187.147368421053,-318.094736842105,3541,3624,-61.0631578947368,108,0,1555,1775,568,4,4,4,4,4,4,3,4,4,4,4,4,4,4,4,4
"79",3540,310.842105263158,4207,254.431578947368,-183.726315789474,3237,68.5789473684211,3364,4184,188.684210526316,-319.115789473684,3538,3623,-63.6210526315789,109,0,1559,1775,583,4,4,4,4,4,4,3,4,4,4,4,4,4,4,4,4
"80",3538,303.663157894737,4200,251.357894736842,-191.936842105263,3231,63.4526315789474,3359,4182,180.484210526316,-323.726315789474,3532,3619,-69.7789473684211,110,0,1555,1775,586,4,4,4,4,4,4,3,4,4,4,4,4,4,4,4,4
"81",3538,294.431578947368,4200,247.768421052632,-195.010526315789,3221,61.4,3348,4181,170.736842105263,-323.726315789474,3522,3619,-74.3894736842105,111,0,1559,1775,557,4,4,4,4,4,4,3,4,4,4,4,4,4,4,4,4
"82",3539,294.947368421053,4204,245.715789473684,-194.505263157895,3218,63.4526315789474,3344,4183,170.736842105263,-320.652631578947,3521,3622,-76.4421052631579,112,0,1555,1771,568,4,4,4,4,4,4,3,4,4,4,4,4,4,4,4,4
"83",3540,298.021052631579,4201,246.231578947368,-193.989473684211,3221,65.4947368421053,3347,4185,171.757894736842,-320.136842105263,3523,3622,-76.9578947368421,113,0,1555,1779,583,4,4,4,4,4,4,3,4,4,4,4,4,4,4,4,4
"84",3538,293.926315789474,4200,243.663157894737,-195.010526315789,3213,65.4947368421053,3345,4184,165.094736842105,-321.168421052632,3514,3622,-81.0631578947368,114,0,1559,1767,586,4,4,4,4,4,4,3,4,4,4,4,4,4,4,4,4
"85",3539,291.873684210526,4199,239.568421052632,-195.526315789474,3209,64.4736842105263,3343,4184,160.989473684211,-320.136842105263,3511,3623,-86.6947368421053,115,0,1559,1771,557,4,4,4,4,4,4,3,4,4,4,4,4,4,4,4,4
"86",3543,292.389473684211,4199,244.178947368421,-197.063157894737,3214,63.9578947368421,3347,4183,167.663157894737,-319.115789473684,3518,3623,-86.6947368421053,116,0,1559,1771,568,4,4,4,4,4,4,3,4,4,4,4,4,4,4,4,4
"87",3541,293.410526315789,4199,248.789473684211,-197.063157894737,3216,63.9578947368421,3347,4178,169.715789473684,-320.652631578947,3519,3621,-85.6736842105263,117,0,1559,1771,583,4,4,4,4,4,4,3,4,4,4,4,4,4,4,4,4
"88",3537,293.410526315789,4198,246.747368421053,-197.578947368421,3215,63.4526315789474,3346,4174,169.2,-322.18947368421,3519,3620,-86.6947368421053,118,0,1559,1771,586,4,4,4,4,4,4,3,4,4,4,4,4,4,4,4,4
"89",3540,288.789473684211,4196,246.747368421053,-204.757894736842,3219,62.4210526315789,3348,4174,168.684210526316,-321.168421052632,3522,3621,-86.1894736842105,119,0,1555,1775,557,4,4,4,4,4,4,3,4,4,4,4,4,4,4,4,4
"90",3539,283.663157894737,4191,246.231578947368,-211.421052631579,3219,60.8842105263158,3349,4173,163.557894736842,-322.18947368421,3521,3621,-83.1052631578947,120,0,1559,1775,568,4,4,4,4,4,4,3,4,4,4,4,4,4,4,4,4
"91",3530,275.978947368421,4189,236.484210526316,-211.936842105263,3204,60.3684210526316,3341,4171,154.842105263158,-321.684210526316,3510,3621,-90.2842105263158,121,0,1559,1771,583,4,4,4,4,4,4,3,4,4,4,4,4,4,4,4,4
"92",3525,267.252631578947,4187,231.357894736842,-212.957894736842,3192,60.3684210526316,3331,4171,149.2,-320.136842105263,3502,3620,-103.105263157895,122,0,1559,1775,586,4,4,4,4,4,4,3,4,4,4,4,4,4,4,4,4
"93",3523,262.126315789474,4185,227.768421052632,-221.684210526316,3188,59.3473684210526,3328,4169,143.042105263158,-321.168421052632,3495,3619,-108.747368421053,123,0,1559,1771,557,4,4,4,4,4,4,3,4,4,4,4,4,4,4,4,4
"94",3516,260.073684210526,4185,224.694736842105,-227.315789473684,3190,54.7263157894737,3330,4168,139.968421052632,-321.684210526316,3495,3620,-105.673684210526,124,0,1559,1771,568,4,4,4,4,4,4,3,4,4,4,4,4,4,4,4,4
"95",3510,254.947368421053,4187,227.252631578947,-226.810526315789,3189,48.5789473684211,3330,4167,143.557894736842,-321.684210526316,3499,3620,-105.673684210526,125,0,1559,1771,583,4,4,4,4,4,4,3,4,4,4,4,4,4,4,4,4
"96",3507,248.284210526316,4182,226.231578947368,-232.452631578947,3180,47.5473684210526,3323,4159,138.431578947368,-321.168421052632,3494,3613,-113.873684210526,126,0,1559,1775,586,4,4,4,4,4,4,3,4,4,4,4,4,4,4,4,4
"97",3496,235.978947368421,4174,215.463157894737,-245.778947368421,3171,43.9578947368421,3312,4151,126.631578947368,-323.726315789474,3483,3605,-123.105263157895,127,0,1559,1767,557,4,4,4,4,4,4,3,4,4,4,4,4,4,4,4,4
"98",3487,224.178947368421,4171,206.231578947368,-248.863157894737,3167,36.2736842105263,3310,4150,120.989473684211,-328.863157894737,3476,3605,-131.315789473684,128,0,1555,1775,568,4,4,4,4,4,4,4,4,4,4,4,4,4,4,4,4
"99",3485,227.252631578947,4171,206.747368421053,-246.810526315789,3167,32.1684210526316,3313,4153,123.557894736842,-330.4,3478,3609,-133.873684210526,0,0,1559,1775,356,4,4,4,4,4,4,3,4,4,4,4,4,4,4,4,4
"100",3484,229.821052631579,4169,206.231578947368,-253.989473684211,3164,31.1368421052632,3307,4151,122.021052631579,-328.863157894737,3476,3608,-135.421052631579,1,0,1559,1771,502,4,4,4,4,4,4,3,4,4,4,4,4,4,4,4,4
"101",3481,215.978947368421,4169,201.105263157895,-261.168421052632,3153,30.6315789473684,3298,4143,111.757894736842,-331.421052631579,3467,3604,-142.084210526316,2,0,1555,1775,537,4,4,4,4,4,4,3,4,4,4,4,4,4,4,4,4
"102",3473,202.126315789474,4166,189.821052631579,-268.347368421053,3141,27.0421052631579,3291,4135,99.4526315789474,-337.063157894737,3455,3601,-153.873684210526,3,0,1559,1771,555,4,4,4,4,4,4,3,4,4,4,4,4,4,4,4,4
"103",3465,201.105263157895,4158,180.589473684211,-275.010526315789,3133,21.4,3285,4135,93.8105263157895,-336.042105263158,3447,3601,-163.105263157895,4,0,1559,1775,503,4,4,4,4,4,4,3,4,4,4,4,4,4,4,4,4
"104",3462,193.926315789474,4159,175.978947368421,-277.578947368421,3124,17.8105263157895,3275,4138,87.6631578947368,-333.989473684211,3441,3602,-168.747368421053,5,0,1559,1771,473,4,4,4,4,4,4,3,4,4,4,4,4,4,4,4,4
"105",3463,182.642105263158,4163,170.336842105263,-282.705263157895,3119,19.3473684210526,3272,4131,80.4842105263158,-335.010526315789,3438,3600,-170.284210526316,6,0,1559,1771,437,4,4,4,4,4,4,3,4,4,4,4,4,4,4,4,4
"106",3464,182.642105263158,4157,171.873684210526,-289.884210526316,3125,18.3157894736842,3277,4123,83.0421052631579,-335.526315789474,3443,3597,-167.726315789474,7,0,1559,1771,587,4,4,4,4,4,4,3,4,4,4,4,4,4,4,4,4
"107",3460,185.2,4151,172.894736842105,-293.473684210526,3124,14.2210526315789,3277,4122,84.5789473684211,-336.042105263158,3441,3593,-171.315789473684,8,0,1559,1771,634,4,4,4,4,4,4,3,4,4,4,4,4,4,4,4,4
"108",3449,173.926315789474,4155,161.610526315789,-301.684210526316,3109,10.6315789473684,3268,4122,73.3052631578947,-337.063157894737,3429,3588,-181.568421052632,9,0,1559,1775,625,4,4,4,4,4,4,3,4,4,4,4,4,4,4,4,4
"109",3442,159.052631578947,4151,151.357894736842,-308.863157894737,3099,3.95789473684211,3255,4118,62.0210526315789,-339.115789473684,3420,3587,-190.8,10,0,1563,1771,594,4,4,4,4,4,4,3,4,4,4,4,4,4,4,4,4
"110",3440,154.947368421053,4145,152.389473684211,-307.315789473684,3096,-1.16842105263158,3251,4116,61.5052631578947,-340.136842105263,3417,3587,-197.978947368421,11,0,1555,1771,560,4,4,4,4,4,4,3,4,4,4,4,4,4,4,4,4
"111",3436,153.410526315789,4146,144.178947368421,-310.915789473684,3086,0.884210526315789,3247,4115,54.8421052631579,-339.631578947368,3409,3586,-208.747368421053,12,0,1559,1775,573,4,4,4,4,4,4,3,4,4,4,4,4,4,4,4,4
"112",3436,151.357894736842,4142,139.568421052632,-317.063157894737,3086,3.45263157894737,3248,4114,53.8105263157895,-337.578947368421,3411,3585,-208.747368421053,13,0,1563,1771,584,4,4,4,4,4,4,3,4,4,4,4,4,4,4,4,4
"113",3439,153.410526315789,4142,151.873684210526,-312.452631578947,3101,1.90526315789474,3257,4118,65.0947368421053,-337.063157894737,3425,3586,-195.926315789474,14,0,1555,1775,594,4,4,4,4,4,4,3,4,4,4,4,4,4,4,4,4
"114",3441,159.052631578947,4144,159.568421052632,-309.884210526316,3107,0.368421052631579,3265,4121,69.7157894736842,-339.115789473684,3432,3585,-191.831578947368,15,0,1559,1771,560,4,4,4,4,4,4,3,4,4,4,4,4,4,4,4,4
"115",3438,157.515789473684,4140,153.410526315789,-319.631578947368,3097,-0.652631578947368,3263,4118,62.5368421052632,-339.631578947368,3427,3582,-197.978947368421,16,0,1559,1775,0,4,4,4,4,4,4,3,4,4,4,4,4,4,4,4,4
"116",3436,154.947368421053,4136,152.894736842105,-324.757894736842,3094,0.884210526315789,3261,4119,59.9684210526316,-337.063157894737,3423,3583,-197.978947368421,17,0,1559,1775,0,4,4,4,4,4,4,3,4,4,4,4,4,4,4,4,4
"117",3434,152.389473684211,4141,153.410526315789,-322.705263157895,3094,0.368421052631579,3259,4122,62.5368421052632,-336.042105263158,3424,3588,-194.905263157895,18,0,1555,1775,0,4,4,4,4,4,4,3,4,4,4,4,4,4,4,4,4
"118",3434,145.2,4141,151.357894736842,-323.221052631579,3090,-0.652631578947368,3254,4121,59.9684210526316,-337.063157894737,3424,3588,-198.494736842105,19,0,1563,1771,0,4,4,4,4,4,4,3,4,4,4,4,4,4,4,4,4
"119",3432,141.610526315789,4136,152.894736842105,-325.273684210526,3090,6.01052631578947,3256,4120,60.9894736842105,-336.547368421053,3426,3585,-195.926315789474,20,0,1555,1775,0,4,4,4,4,4,4,3,4,4,4,4,4,4,4,4,4
"120",3429,142.126315789474,4135,147.252631578947,-323.726315789474,3090,12.6842105263158,3257,4121,59.4526315789474,-335.526315789474,3422,3586,-197.463157894737,21,0,1559,1775,0,4,4,4,4,4,4,3,4,4,4,4,4,4,4,4,4
"121",3427,141.610526315789,4136,139.568421052632,-319.631578947368,3085,14.2210526315789,3253,4121,52.7894736842105,-337.578947368421,3419,3587,-206.189473684211,22,0,1559,1771,0,4,4,4,4,4,4,3,4,4,4,4,4,4,4,4,4
"122",3419,136.484210526316,4134,138.021052631579,-324.757894736842,3076,11.6526315789474,3245,4120,46.1263157894737,-338.6,3416,3583,-210.8,23,0,1555,1775,0,4,4,4,4,4,4,3,4,4,4,4,4,4,4,4,4
"123",3410,129.821052631579,4126,130.842105263158,-336.042105263158,3071,5.49473684210526,3235,4114,40.4842105263158,-337.578947368421,3408,3576,-217.463157894737,24,0,1555,1775,0,4,4,4,4,4,4,3,4,4,4,4,4,4,4,4,4
"124",3403,123.663157894737,4127,120.589473684211,-344.242105263158,3063,0.884210526315789,3229,4110,31.7578947368421,-336.547368421053,3402,3573,-229.778947368421,25,0,1559,1775,0,4,4,4,4,4,4,3,4,4,4,4,4,4,4,4,4
"125",3397,122.642105263158,4128,123.663157894737,-344.757894736842,3062,2.42105263157895,3235,4111,33.8105263157895,-337.578947368421,3404,3573,-225.157894736842,26,0,1559,1771,0,4,4,4,4,4,4,3,4,4,4,4,4,4,4,4,4
"126",3391,124.178947368421,4125,128.284210526316,340.989473684211,3066,0.368421052631579,3236,4111,39.4526315789474,-338.6,3406,3572,-213.873684210526,27,0,1555,1775,0,4,4,4,4,4,4,3,4,4,4,4,4,4,4,4,4
"127",3391,124.178947368421,4122,123.157894736842,336.378947368421,3061,1.90526315789474,3230,4106,36.3789473684211,-339.115789473684,3405,3572,-217.978947368421,28,0,1559,1771,0,4,4,4,4,4,4,3,4,4,4,4,4,4,4,4,4
"128",3397,125.2,4123,121.105263157895,339.452631578947,3055,10.6315789473684,3231,4110,37.4,-338.094736842105,3406,3574,-220.031578947368,29,0,1555,1771,0,4,4,4,4,4,4,3,4,4,4,4,4,4,4,4,4
"129",3397,125.2,4123,124.694736842105,344.073684210526,3056,13.7052631578947,3233,4118,40.4842105263158,-334.505263157895,3409,3576,-219.010526315789,30,0,1555,1775,0,4,4,4,4,4,4,3,4,4,4,4,4,4,4,4,4
"130",3393,118.021052631579,4124,126.231578947368,344.578947368421,3058,13.7052631578947,3229,4113,36.8947368421053,-333.473684210526,3409,3576,-226.189473684211,31,0,1559,1771,0,4,4,4,4,4,4,3,4,4,4,4,4,4,4,4,4
"131",3387,107.252631578947,4124,117.515789473684,338.431578947368,3050,11.1368421052632,3221,4105,30.7368421052632,-336.042105263158,3401,3574,-230.284210526316,32,0,1559,1775,0,4,4,4,4,4,4,3,4,4,4,4,4,4,4,4,4
"132",3384,106.747368421053,4116,112.389473684211,332.789473684211,3049,2.93684210526316,3220,4104,28.1684210526316,-338.6,3399,3571,-229.263157894737,33,0,1555,1771,0,4,4,4,4,4,4,3,4,4,4,4,4,4,4,4,4
"133",3383,110.842105263158,4116,119.568421052632,332.273684210526,3051,3.95789473684211,3227,4105,30.7368421052632,-336.547368421053,3405,3571,-231.831578947368,34,0,1559,1775,0,4,4,4,4,4,4,3,4,4,4,4,4,4,4,4,4
"134",3387,113.926315789474,4119,128.284210526316,336.894736842105,3056,13.7052631578947,3235,4104,42.5368421052632,-333.989473684211,3410,3572,-225.157894736842,35,0,1559,1771,0,4,4,4,4,4,4,3,4,4,4,4,4,4,4,4,4
"135",3392,120.589473684211,4122,132.894736842105,340.989473684211,3063,15.2421052631579,3238,4106,51.2526315789474,-331.936842105263,3417,3573,-213.873684210526,36,0,1555,1775,0,4,4,4,4,4,4,3,4,4,4,4,4,4,4,4,4
"136",3396,127.252631578947,4121,136.484210526316,-342.705263157895,3066,12.6842105263158,3240,4107,49.2,-327.831578947368,3425,3574,-209.778947368421,37,0,1559,1775,0,4,4,4,4,4,4,3,4,4,4,4,4,4,4,4,4
"137",3395,124.694736842105,4122,137,-342.705263157895,3061,14.2210526315789,3241,4105,47.6631578947368,-327.831578947368,3425,3574,-211.831578947368,38,0,1555,1775,0,4,4,4,4,4,4,3,4,4,4,4,4,4,4,4,4
"138",3391,122.642105263158,4117,135.978947368421,338.936842105263,3058,14.2210526315789,3241,4104,48.1684210526316,-332.452631578947,3423,3573,-213.873684210526,39,0,1555,1771,0,4,4,4,4,4,4,3,4,4,4,4,4,4,4,4,4
"139",3390,123.663157894737,4116,136.484210526316,336.378947368421,3064,12.6842105263158,3246,4106,54.3263157894737,-331.421052631579,3428,3574,-206.694736842105,40,0,1559,1775,0,4,4,4,4,4,4,3,4,4,4,4,4,4,4,4,4
"140",3391,123.157894736842,4119,139.568421052632,342.021052631579,3069,18.3157894736842,3252,4108,60.9894736842105,-324.242105263158,3435,3576,-196.957894736842,41,0,1559,1775,0,4,4,4,4,4,4,3,4,4,4,4,4,4,4,4,4
"141",3391,125.2,4118,149.821052631579,342.536842105263,3072,23.9578947368421,3252,4108,61.5052631578947,-322.18947368421,3441,3576,-194.905263157895,42,0,1559,1771,0,4,4,4,4,4,4,3,4,4,4,4,4,4,4,4,4
"142",3391,126.747368421053,4116,150.336842105263,337.4,3070,18.8315789473684,3252,4107,59.4526315789474,-324.242105263158,3437,3575,-199.515789473684,43,0,1559,1775,0,4,4,4,4,4,4,3,4,4,4,4,4,4,4,4,4
"143",3392,128.284210526316,4118,143.663157894737,339.452631578947,3069,16.2736842105263,3254,4107,61.5052631578947,-323.726315789474,3435,3574,-198.494736842105,44,0,1555,1767,0,4,4,4,4,4,4,3,4,4,4,4,4,4,4,4,4
"144",3394,127.768421052632,4118,150.842105263158,340.989473684211,3071,22.9368421052632,3254,4108,63.0421052631579,-321.684210526316,3441,3575,-195.421052631579,45,0,1559,1771,0,4,4,4,4,4,4,3,4,4,4,4,4,4,4,4,4
"145",3394,128.789473684211,4110,158.536842105263,339.452631578947,3072,23.4526315789474,3258,4109,62.0210526315789,-320.652631578947,3443,3574,-196.957894736842,46,0,1559,1771,0,4,4,4,4,4,4,3,4,4,4,4,4,4,4,4,4
"146",3391,132.894736842105,4113,151.873684210526,337.4,3070,15.2421052631579,3263,4108,67.1473684210526,-321.684210526316,3441,3574,-199.010526315789,47,0,1563,1771,0,4,4,4,4,4,4,3,4,4,4,4,4,4,4,4,4
"147",3396,139.568421052632,4116,151.873684210526,339.452631578947,3074,18.8315789473684,3263,4107,74.3263157894737,-321.168421052632,3446,3576,-192.852631578947,48,0,1555,1775,0,4,4,4,4,4,4,3,4,4,4,4,4,4,4,4,4
"148",3403,141.610526315789,4116,161.610526315789,340.484210526316,3080,26.0105263157895,3265,4107,75.3473684210526,-321.168421052632,3453,3574,-184.136842105263,49,0,1563,1775,0,4,4,4,4,4,4,3,4,4,4,4,4,4,4,4,4
"149",3402,140.073684210526,4113,159.568421052632,337.915789473684,3081,21.9052631578947,3269,4107,74.8421052631579,-323.726315789474,3452,3572,-182.6,50,0,1559,1771,0,4,4,4,4,4,4,3,4,4,4,4,4,4,4,4,4
"150",3402,140.073684210526,4110,158.536842105263,337.4,3078,15.2421052631579,3268,4107,76.8947368421053,-322.705263157895,3451,3573,-185.673684210526,51,0,1559,1775,0,4,4,4,4,4,4,3,4,4,4,4,4,4,4,4,4
"151",3406,140.073684210526,4110,164.694736842105,339.968421052632,3076,17.8105263157895,3264,4106,75.3473684210526,-321.168421052632,3452,3573,-186.694736842105,52,0,1559,1775,0,4,4,4,4,4,4,3,4,4,4,4,4,4,4,4,4
"152",3409,147.252631578947,4112,170.336842105263,-340.652631578947,3084,26.5263157894737,3273,4107,82.0210526315789,-320.136842105263,3461,3580,-176.442105263158,53,0,1555,1771,0,4,4,4,4,4,4,3,4,4,4,4,4,4,4,4,4
"153",3405,146.231578947368,4113,171.873684210526,-335.010526315789,3092,28.5789473684211,3281,4108,90.2210526315789,-318.094736842105,3467,3587,-170.8,54,0,1559,1771,0,4,4,4,4,4,4,3,4,4,4,4,4,4,4,4,4
"154",3396,135.978947368421,4109,170.842105263158,-337.578947368421,3090,27.5473684210526,3278,4106,86.1263157894737,-318.094736842105,3466,3579,-175.926315789474,55,0,1555,1775,0,4,4,4,4,4,4,3,4,4,4,4,4,4,4,4,4
"155",3399,139.568421052632,4107,169.305263157895,-339.115789473684,3084,27.0421052631579,3278,4104,85.0947368421053,-321.684210526316,3466,3572,-176.442105263158,56,0,1563,1771,0,4,4,4,4,4,4,3,4,4,4,4,4,4,4,4,4
"156",3414,159.052631578947,4107,174.431578947368,-334.505263157895,3089,27.0421052631579,3284,4105,92.7894736842105,-321.168421052632,3472,3575,-167.726315789474,57,0,1555,1775,0,4,4,4,4,4,4,3,4,4,4,4,4,4,4,4,4
"157",3426,174.431578947368,4108,183.157894736842,-334.505263157895,3096,26.5263157894737,3284,4106,95.3473684210526,-319.631578947368,3479,3576,-167.210526315789,58,0,1559,1775,0,4,4,4,4,4,4,3,4,4,4,4,4,4,4,4,4
"158",3438,187.252631578947,4107,188.284210526316,-335.010526315789,3103,26.0105263157895,3289,4104,100.989473684211,-322.18947368421,3487,3572,-163.105263157895,59,0,1559,1771,0,4,4,4,4,4,4,3,4,4,4,4,4,4,4,4,4
"159",3458,207.768421052632,4106,199.568421052632,-328.347368421053,3111,27.0421052631579,3301,4104,112.273684210526,-323.221052631579,3498,3572,-151.315789473684,60,0,1559,1779,0,4,4,4,4,4,4,3,4,4,4,4,4,4,4,4,4
"160",3479,223.663157894737,4105,203.663157894737,-317.063157894737,3106,27.0421052631579,3299,4102,108.684210526316,-321.684210526316,3497,3572,-155.926315789474,61,0,1559,1775,0,4,4,4,4,4,4,3,4,4,4,4,4,4,4,4,4
"161",3503,239.568421052632,4108,200.589473684211,-308.863157894737,3103,27.0421052631579,3297,4101,108.168421052632,-322.18947368421,3497,3573,-160.031578947368,62,0,1559,1775,0,4,4,4,4,4,4,3,4,4,4,4,4,4,4,4,4
"162",3526,253.926315789474,4113,202.126315789474,-301.168421052632,3108,30.1157894736842,3306,4105,119.452631578947,-319.631578947368,3507,3575,-153.368421052632,63,0,1555,1771,0,4,4,4,4,4,4,3,4,4,4,4,4,4,4,4,4
"163",3540,265.2,4113,209.305263157895,-293.473684210526,3110,33.1894736842105,3313,4108,123.042105263158,-316.042105263158,3513,3576,-143.105263157895,64,0,1555,1779,356,4,4,4,4,4,4,3,4,4,4,4,4,4,4,4,4
"164",3550,278.536842105263,4112,217.515789473684,-290.4,3111,34.2210526315789,3317,4109,124.073684210526,-316.042105263158,3514,3580,-137.463157894737,65,0,1563,1771,502,4,4,4,4,4,4,3,4,4,4,4,4,4,4,4,4
"165",3562,279.052631578947,4111,218.536842105263,-285.273684210526,3109,34.7263157894737,3310,4110,123.557894736842,-317.063157894737,3515,3581,-142.6,66,0,1555,1775,539,4,4,4,4,4,4,3,4,4,4,4,4,4,4,4,4
"166",3561,267.768421052632,4111,206.747368421053,-283.221052631579,3094,35.2421052631579,3295,4110,113.305263157895,-317.578947368421,3508,3576,-155.926315789474,67,0,1559,1775,555,4,4,4,4,4,4,3,4,4,4,4,4,4,4,4,4
"167",3559,274.431578947368,4108,209.821052631579,-284.242105263158,3099,38.3157894736842,3304,4107,115.863157894737,-318.094736842105,3509,3573,-150.8,68,0,1559,1775,503,4,4,4,4,4,4,3,4,4,4,4,4,4,4,4,4
"168",3565,291.357894736842,4108,231.873684210526,-282.18947368421,3124,42.9368421052632,3330,4108,137.4,-318.6,3529,3576,-128.242105263158,69,0,1559,1775,473,4,4,4,4,4,4,3,4,4,4,4,4,4,4,4,4
"169",3566,285.715789473684,4106,227.252631578947,-275.010526315789,3117,44.9894736842105,3326,4108,133.810526315789,-320.136842105263,3531,3574,-132.336842105263,70,0,1559,1775,437,4,4,4,4,4,4,3,4,4,4,4,4,4,4,4,4
"170",3564,271.873684210526,4105,212.389473684211,-275.010526315789,3098,42.4210526315789,3309,4105,117.915789473684,-319.631578947368,3517,3572,-148.242105263158,71,0,1563,1775,587,4,4,4,4,4,4,3,4,4,4,4,4,4,4,4,4
"171",3563,283.663157894737,4108,229.821052631579,-277.063157894737,3118,46.0105263157895,3327,4110,135.347368421053,-312.452631578947,3530,3578,-134.389473684211,72,0,1559,1775,634,4,4,4,4,4,4,3,4,4,4,4,4,4,4,4,4
"172",3562,299.568421052632,4109,253.410526315789,-265.778947368421,3144,56.2736842105263,3352,4120,158.431578947368,-307.315789473684,3556,3585,-106.694736842105,73,0,1559,1779,626,4,4,4,4,4,4,3,4,4,4,4,4,4,4,4,4
"173",3557,288.789473684211,4109,241.610526315789,-258.094736842105,3130,56.7789473684211,3342,4117,147.147368421053,-309.368421052632,3549,3581,-115.421052631579,74,0,1559,1771,594,4,4,4,4,4,4,3,4,4,4,4,4,4,4,4,4
"174",3548,273.926315789474,4105,227.252631578947,-262.705263157895,3111,53.1894736842105,3327,4108,133.305263157895,-310.915789473684,3532,3573,-138.494736842105,75,0,1555,1775,561,4,4,4,4,4,4,3,4,4,4,4,4,4,4,4,4
"175",3543,280.589473684211,4106,236.484210526316,-265.778947368421,3121,58.3157894736842,3336,4113,139.452631578947,-309.368421052632,3541,3578,-128.242105263158,76,0,1559,1775,575,4,4,4,4,4,4,3,4,4,4,4,4,4,4,4,4
"176",3545,282.642105263158,4107,242.126315789474,-258.6,3131,63.9578947368421,3345,4119,143.557894736842,-309.368421052632,3547,3585,-114.389473684211,77,0,1559,1775,585,4,4,4,4,4,4,3,4,4,4,4,4,4,4,4,4
"177",3539,266.231578947368,4107,237.515789473684,-262.705263157895,3124,59.8631578947368,3342,4110,143.557894736842,-309.884210526316,3544,3581,-122.6,78,0,1559,1771,594,4,4,4,4,4,4,3,4,4,4,4,4,4,4,4,4
"178",3527,269.305263157895,4105,245.2,-271.421052631579,3130,59.3473684210526,3350,4104,153.305263157895,-311.936842105263,3554,3574,-116.957894736842,79,0,1559,1775,561,4,4,4,4,4,4,3,4,4,4,4,4,4,4,4,4
"179",3526,281.610526315789,4104,256.484210526316,-268.863157894737,3145,62.4210526315789,3363,4108,160.484210526316,-312.452631578947,3565,3573,-99.5157894736842,80,0,1563,1771,575,4,4,4,4,4,4,3,4,4,4,4,4,4,4,4,4
"180",3528,273.410526315789,4107,252.389473684211,-263.221052631579,3141,64.9894736842105,3361,4111,157.4,-307.831578947368,3558,3584,-104.136842105263,81,0,1555,1771,585,4,4,4,4,4,4,3,4,4,4,4,4,4,4,4,4
"181",3524,263.157894736842,4108,253.410526315789,-264.242105263158,3135,68.0631578947368,3358,4109,158.936842105263,-306.294736842105,3558,3587,-110.8,82,0,1559,1771,594,4,4,4,4,4,4,3,4,4,4,4,4,4,4,4,4
"182",3523,266.231578947368,4106,263.663157894737,-266.810526315789,3143,67.0421052631579,3364,4108,167.663157894737,-310.915789473684,3573,3579,-101.568421052632,83,0,1559,1771,561,4,4,4,4,4,4,3,4,4,4,4,4,4,4,4,4
"183",3519,269.305263157895,4106,268.284210526316,-265.778947368421,3150,67.0421052631579,3367,4108,171.252631578947,-312.957894736842,3578,3578,-97.4631578947368,84,0,1563,1771,575,4,4,4,4,4,4,3,4,4,4,4,4,4,4,4,4
"184",3512,263.157894736842,4106,257.515789473684,-266.810526315789,3142,71.6526315789474,3360,4109,163.042105263158,-312.452631578947,3564,3587,-106.189473684211,85,0,1555,1775,585,4,4,4,4,4,4,3,4,4,4,4,4,4,4,4,4
"185",3511,258.021052631579,4105,250.336842105263,-266.810526315789,3135,75.2421052631579,3357,4108,154.842105263158,-314.505263157895,3558,3588,-109.778947368421,86,0,1563,1771,594,4,4,4,4,4,4,3,4,4,4,4,4,4,4,4,4
"186",3509,252.389473684211,4106,258.021052631579,-268.863157894737,3141,76.2736842105263,3359,4108,155.863157894737,-316.547368421053,3566,3584,-107.210526315789,87,0,1559,1771,561,4,4,4,4,4,4,3,4,4,4,4,4,4,4,4,4
"187",3502,250.336842105263,4105,263.157894736842,-268.347368421053,3145,76.7789473684211,3363,4108,160.989473684211,-317.063157894737,3569,3585,-104.136842105263,88,0,1559,1775,575,4,4,4,4,4,4,3,4,4,4,4,4,4,4,4,4
"188",3498,250.336842105263,4105,262.126315789474,-270.915789473684,3142,76.7789473684211,3365,4107,166.126315789474,-319.115789473684,3569,3585,-103.105263157895,89,0,1555,1775,585,4,4,4,4,4,4,3,4,4,4,4,4,4,4,4,4
"189",3496,249.821052631579,4103,262.642105263158,-272.452631578947,3143,76.2736842105263,3365,4104,168.168421052632,-320.652631578947,3571,3584,-103.105263157895,90,0,1559,1771,594,4,4,4,4,4,4,3,4,4,4,4,4,4,4,4,4
"190",3491,246.747368421053,4101,263.663157894737,-269.884210526316,3150,77.8105263157895,3370,4105,169.715789473684,-319.631578947368,3572,3585,-99.5157894736842,91,0,1559,1771,561,4,4,4,4,4,4,3,4,4,4,4,4,4,4,4,4
"191",3493,250.336842105263,4102,266.747368421053,-270.4,3154,78.8315789473684,3377,4107,172.273684210526,-319.631578947368,3578,3584,-91.8315789473684,92,0,1555,1779,575,4,4,4,4,4,4,3,4,4,4,4,4,4,4,4,4
"192",3494,260.073684210526,4103,277,-270.915789473684,3155,79.3473684210526,3381,4108,177.4,-321.168421052632,3589,3586,-87.2105263157895,93,0,1559,1767,585,4,4,4,4,4,4,3,4,4,4,4,4,4,4,4,4
"193",3481,251.873684210526,4101,270.336842105263,-271.936842105263,3147,79.3473684210526,3371,4106,170.736842105263,-322.18947368421,3577,3587,-100.031578947368,94,0,1555,1771,594,4,4,4,4,4,4,3,4,4,4,4,4,4,4,4,4
"194",3470,230.336842105263,4098,249.821052631579,-275.010526315789,3130,76.7789473684211,3357,4104,154.326315789474,-323.221052631579,3556,3582,-117.978947368421,95,0,1559,1771,561,4,4,4,4,4,4,3,4,4,4,4,4,4,4,4,4
"195",3471,224.178947368421,4098,243.663157894737,-279.115789473684,3124,75.7578947368421,3352,4106,148.168421052632,-323.726315789474,3553,3579,-120.031578947368,96,0,1559,1767,575,4,4,4,4,4,4,3,4,4,4,4,4,4,4,4,4
"196",3476,239.568421052632,4098,261.610526315789,-270.915789473684,3139,87.5473684210526,3365,4107,167.147368421053,-322.705263157895,3572,3585,-102.084210526316,97,0,1559,1771,585,4,4,4,4,4,4,3,4,4,4,4,4,4,4,4,4
"197",3479,251.357894736842,4103,282.642105263158,-259.115789473684,3160,99.3473684210526,3385,4110,188.168421052632,-320.136842105263,3594,3590,-81.5684210526316,98,0,1559,1771,594,4,4,4,4,4,4,3,4,4,4,4,4,4,4,4,4
"198",3486,258.021052631579,4106,293.926315789474,-251.936842105263,3173,98.8315789473684,3398,4118,197.4,-319.115789473684,3609,3588,-66.6947368421053,99,0,1559,1771,561,4,4,4,4,4,4,3,4,4,4,4,4,4,4,4,4
"199",3496,267.768421052632,4106,303.663157894737,-243.221052631579,3183,103.452631578947,3407,4119,206.631578947368,-317.063157894737,3622,3589,-55.9263157894737,100,0,1559,1771,575,4,4,4,4,4,4,3,4,4,4,4,4,4,4,4,4
"200",3498,273.926315789474,4105,310.336842105263,-242.189473684211,3185,104.473684210526,3411,4112,212.273684210526,-315.526315789474,3624,3592,-55.9263157894737,101,0,1559,1775,585,4,4,4,4,4,4,3,4,4,4,4,4,4,4,4,4
"201",3486,262.642105263158,4109,299.568421052632,-253.989473684211,3172,51.6526315789474,3403,4114,203.042105263158,-315.526315789474,3609,3590,-68.2421052631579,102,0,1559,1767,594,4,4,4,4,4,4,3,4,4,4,4,4,4,4,4,4
"202",3471,247.768421052632,4113,283.157894736842,-263.221052631579,3161,-21.6842105263158,3391,4122,187.663157894737,-313.473684210526,3597,3593,-80.5473684210526,103,0,1555,1767,561,4,4,4,4,4,4,3,4,4,4,4,4,4,4,4,4
"203",3473,251.873684210526,4112,289.305263157895,-259.631578947368,3166,-43.2210526315789,3393,4123,189.715789473684,-308.347368421053,3604,3602,-77.4631578947368,104,0,1563,1771,575,4,4,4,4,4,4,3,4,4,4,4,4,4,4,4,4
"204",3482,257.515789473684,4115,299.568421052632,-257.063157894737,3169,-36.5473684210526,3400,4122,196.378947368421,-308.347368421053,3606,3604,-72.8526315789474,105,0,1559,1771,585,4,4,4,4,4,4,3,4,4,4,4,4,4,4,4,4
"205",3482,259.568421052632,4114,295.978947368421,-252.957894736842,3168,-43.2210526315789,3403,4125,196.378947368421,-309.368421052632,3608,3603,-70.8,106,0,1559,1771,594,4,4,4,4,4,4,3,4,4,4,4,4,4,4,4,4
"206",3478,262.126315789474,4115,292.389473684211,-247.831578947368,3170,-49.8842105263158,3404,4126,196.894736842105,-307.315789473684,3614,3605,-68.7473684210526,107,0,1559,1771,561,4,4,4,4,4,4,3,4,4,4,4,4,4,4,4,4
"207",3486,263.157894736842,4119,299.568421052632,-243.726315789474,3176,-43.2210526315789,3406,4122,202.536842105263,-306.294736842105,3618,3605,-63.1052631578947,108,0,1563,1771,575,4,4,4,4,4,4,3,4,4,4,4,4,4,4,4,4
"208",3494,266.747368421053,4121,310.336842105263,-244.757894736842,3183,-35.5263157894737,3411,4127,209.715789473684,-306.294736842105,3622,3607,-54.9052631578947,109,0,1555,1771,585,4,4,4,4,4,4,3,4,4,4,4,4,4,4,4,4
"209",3491,278.021052631579,4117,313.410526315789,-243.726315789474,3188,-32.9578947368421,3416,4136,215.863157894737,-304.757894736842,3625,3611,-49.2631578947368,110,0,1559,1775,594,4,4,4,4,4,4,3,4,4,4,4,4,4,4,4,4
"210",3482,280.073684210526,4118,310.336842105263,-237.063157894737,3187,-35.5263157894737,3414,4135,214.842105263158,-304.242105263158,3627,3609,-48.2421052631579,111,0,1559,1767,561,4,4,4,4,4,4,3,4,4,4,4,4,4,4,4,4
"211",3481,277.515789473684,4124,310.842105263158,-230.915789473684,3188,-31.4210526315789,3414,4133,213.810526315789,-306.294736842105,3631,3610,-48.7473684210526,112,0,1559,1771,575,4,4,4,4,4,4,3,4,4,4,4,4,4,4,4,4
"212",3491,293.410526315789,4123,323.157894736842,-224.242105263158,3198,-19.1157894736842,3425,4137,228.684210526316,-305.778947368421,3645,3619,-37.9789473684211,113,0,1559,1771,585,4,4,4,4,4,4,3,4,4,4,4,4,4,4,4,4
"213",3495,306.231578947368,4121,333.410526315789,-216.042105263158,3209,-16.5473684210526,3437,4138,239.968421052632,-305.273684210526,3656,3621,-26.6947368421053,114,0,1559,1771,594,4,4,4,4,4,4,3,4,4,4,4,4,4,4,4,4
"214",3498,309.305263157895,4121,340.073684210526,-212.452631578947,3216,-13.4736842105263,3444,4136,243.557894736842,-306.294736842105,3665,3618,-19.0105263157895,115,0,1559,1771,561,4,4,4,4,4,4,3,4,4,4,4,4,4,4,4,4
"215",3505,315.978947368421,4124,-342.6,-211.936842105263,3224,-4.2421052631579,3453,4138,253.810526315789,-301.168421052632,3676,3619,-8.74736842105263,116,0,1559,1771,575,4,4,4,4,4,4,3,4,4,4,4,4,4,4,4,4
"216",3511,328.284210526316,4122,-331.315789473684,-201.168421052632,3236,-0.652631578947368,3466,4137,268.684210526316,-293.473684210526,3687,3622,4.07368421052632,117,0,1555,1771,585,4,4,4,4,4,4,3,4,4,4,4,4,4,4,4,4
"217",3518,340.073684210526,4126,-318.494736842105,-188.863157894737,3248,0.884210526315789,3477,4141,280.989473684211,-291.936842105263,3700,3626,17.4,118,0,1559,1771,594,4,4,4,4,4,4,3,4,4,4,4,4,4,4,4,4
"218",3536,-332.336842105263,4136,-300.031578947368,-177.063157894737,3264,15.7578947368421,3493,4152,295.863157894737,-291.421052631579,3723,3636,37.9157894736842,119,0,1555,1771,561,4,4,4,4,4,4,3,4,4,4,4,4,4,4,4,4
"219",3546,-315.926315789474,4142,-282.084210526316,-166.810526315789,3280,29.6,3510,4156,312.273684210526,-287.831578947368,3742,3641,57.9157894736842,120,0,1555,1771,575,4,4,4,4,4,4,3,4,4,4,4,4,4,4,4,4
"220",3545,-311.831578947368,4135,-277.463157894737,-164.242105263158,3286,28.5789473684211,3513,4153,316.894736842105,-286.810526315789,3744,3638,62.5368421052632,121,0,1555,1767,585,4,4,4,4,4,4,3,4,4,4,4,4,4,4,4,4
"221",3549,-312.336842105263,4131,-274.905263157895,-160.136842105263,3289,26.0105263157895,3514,4154,320.989473684211,-284.757894736842,3751,3641,65.6105263157895,122,0,1555,1775,594,4,4,4,4,4,4,3,4,4,4,4,4,4,4,4,4
"222",3560,-300.547368421053,4137,-261.063157894737,-147.315789473684,3303,35.2421052631579,3530,4157,337.4,-278.094736842105,3770,3650,81.5052631578947,123,0,1559,1771,561,4,4,4,4,4,4,3,4,4,4,4,4,4,4,4,4
"223",3569,-285.157894736842,4139,-246.189473684211,-143.726315789474,3317,44.9894736842105,3547,4157,-337.063157894737,-276.042105263158,3784,3653,95.8631578947368,124,0,1555,1771,575,4,4,4,4,4,4,3,4,4,4,4,4,4,4,4,4
"224",3564,-286.694736842105,4136,-246.189473684211,-149.368421052632,3314,44.9894736842105,3545,4155,-341.168421052632,-279.115789473684,3779,3650,93.8105263157895,125,0,1555,1771,585,4,4,4,4,4,4,3,4,4,4,4,4,4,4,4,4
"225",3559,-290.284210526316,4135,-248.747368421053,-145.778947368421,3310,41.4,3540,4156,342.021052631579,-280.652631578947,3774,3650,89.2,126,0,1559,1771,594,4,4,4,4,4,4,3,4,4,4,4,4,4,4,4,4
"226",3567,-280.031578947368,4138,-243.105263157895,-136.042105263158,3317,45.4947368421053,3546,4161,-336.547368421053,-278.094736842105,3784,3653,94.8421052631579,127,0,1559,1771,561,4,4,4,4,4,4,3,4,4,4,4,4,4,4,4,4
"227",3577,-267.726315789474,4138,-236.957894736842,-127.315789473684,3327,54.7263157894737,3558,4166,-326.294736842105,-275.010526315789,3796,3656,104.073684210526,128,0,1555,1771,575,4,4,4,4,4,4,4,4,4,4,4,4,4,4,4,4
"228",3575,-260.547368421053,4143,-225.673684210526,-120.136842105263,3334,59.3473684210526,3570,4168,-320.136842105263,-274.505263157895,3805,3661,115.347368421053,0,0,1559,1771,353,4,4,4,4,4,4,3,4,4,4,4,4,4,4,4,4
"229",3579,-254.389473684211,4145,-212.336842105263,-117.578947368421,3345,61.4,3576,4167,-309.368421052632,-275.010526315789,3817,3663,125.610526315789,1,0,1555,1767,505,4,4,4,4,4,4,3,4,4,4,4,4,4,4,4,4
"230",3585,-257.978947368421,4144,-214.905263157895,-120.136842105263,3343,60.3684210526316,3573,4166,-307.831578947368,-273.473684210526,3817,3662,123.557894736842,2,0,1555,1771,541,4,4,4,4,4,4,3,4,4,4,4,4,4,4,4,4
"231",3583,-257.978947368421,4146,-219.515789473684,-116.547368421053,3342,61.4,3575,4167,-308.863157894737,-273.989473684211,3816,3664,123.042105263158,3,0,1559,1767,555,4,4,4,4,4,4,3,4,4,4,4,4,4,4,4,4
"232",3585,-239.515789473684,4151,-196.442105263158,-106.810526315789,3367,70.1157894736842,3596,4170,-288.863157894737,-275.010526315789,3836,3668,142.536842105263,4,0,1555,1771,503,4,4,4,4,4,4,3,4,4,4,4,4,4,4,4,4
"233",3595,-225.157894736842,4153,-177.978947368421,-102.705263157895,3387,78.3157894736842,3612,4174,-273.473684210526,-268.863157894737,3858,3671,162.021052631579,5,0,1559,1771,473,4,4,4,4,4,4,3,4,4,4,4,4,4,4,4,4
"234",3607,-223.105263157895,4156,-177.463157894737,-96.5473684210526,3384,81.4,3615,4177,-269.884210526316,-260.136842105263,3862,3675,167.663157894737,6,0,1559,1767,437,4,4,4,4,4,4,3,4,4,4,4,4,4,4,4,4
"235",3608,-219.515789473684,4159,-171.831578947368,-88.3473684210526,3386,86.5263157894737,3619,4183,-261.684210526316,-259.631578947368,3863,3679,169.715789473684,7,0,1559,1767,587,4,4,4,4,4,4,3,4,4,4,4,4,4,4,4,4
"236",3606,-214.389473684211,4156,-163.105263157895,-83.7263157894737,3397,93.1894736842105,3626,4186,-257.063157894737,-261.168421052632,3869,3682,175.863157894737,8,0,1555,1771,634,4,4,4,4,4,4,3,4,4,4,4,4,4,4,4,4
"237",3612,-215.421052631579,4157,-161.568421052632,-83.2210526315789,3401,93.1894736842105,3632,4187,-256.547368421053,-258.6,3876,3684,183.042105263158,9,0,1563,1767,627,4,4,4,4,4,4,3,4,4,4,4,4,4,4,4,4
"238",3623,-205.157894736842,4158,-151.831578947368,-76.0421052631579,3408,96.2736842105263,3641,4188,-242.189473684211,-256.547368421053,3889,3685,192.789473684211,10,0,1555,1767,594,4,4,4,4,4,4,3,4,4,4,4,4,4,4,4,4
"239",3620,-199.515789473684,4160,-148.747368421053,-71.9368421052632,3410,103.452631578947,3639,4188,-239.631578947368,-257.578947368421,3890,3684,192.273684210526,11,0,1559,1771,561,4,4,4,4,4,4,3,4,4,4,4,4,4,4,4,4
"240",3613,-211.315789473684,4156,-162.084210526316,-72.9578947368421,3397,104.473684210526,3632,4186,-258.6,-259.631578947368,3879,3684,180.989473684211,12,0,1559,1767,575,4,4,4,4,4,4,3,4,4,4,4,4,4,4,4,4
"241",3616,-214.389473684211,4157,-163.621052631579,-68.8631578947368,3393,106.526315789474,3631,4187,-260.652631578947,-259.631578947368,3873,3684,179.452631578947,13,0,1555,1771,585,4,4,4,4,4,4,3,4,4,4,4,4,4,4,4,4
"242",3621,-201.568421052632,4163,-154.389473684211,-62.7052631578947,3403,110.115789473684,3633,4189,-247.831578947368,-257.063157894737,3877,3683,187.663157894737,14,0,1559,1771,594,4,4,4,4,4,4,3,4,4,4,4,4,4,4,4,4
"243",3625,-191.831578947368,4162,-146.189473684211,-61.1684210526316,3412,109.084210526316,3642,4189,-239.631578947368,-257.578947368421,3888,3682,194.842105263158,15,0,1559,1771,561,4,4,4,4,4,4,3,4,4,4,4,4,4,4,4,4
"244",3630,-190.284210526316,4159,-140.547368421053,-61.6842105263158,3417,110.115789473684,3649,4190,-236.042105263158,-259.631578947368,3893,3683,197.915789473684,16,0,1559,1771,0,4,4,4,4,4,4,3,4,4,4,4,4,4,4,4,4
"245",3637,-176.957894736842,4159,-128.242105263158,-53.9894736842105,3434,119.347368421053,3659,4196,-223.726315789474,-252.957894736842,3906,3686,212.273684210526,17,0,1555,1775,0,4,4,4,4,4,4,3,4,4,4,4,4,4,4,4,4
"246",3639,-162.084210526316,4165,-117.463157894737,-43.2210526315789,3447,126.010526315789,3674,4201,-211.421052631579,-243.726315789474,3924,3692,229.2,18,0,1563,1771,0,4,4,4,4,4,4,3,4,4,4,4,4,4,4,4,4
"247",3643,-161.568421052632,4169,-116.442105263158,-34.5052631578947,3445,129.6,3683,4202,-209.368421052632,-243.221052631579,3931,3697,233.810526315789,19,0,1555,1771,0,4,4,4,4,4,4,3,4,4,4,4,4,4,4,4,4
"248",3645,-166.694736842105,4171,-115.421052631579,-32.9578947368421,3442,135.242105263158,3681,4203,-207.315789473684,-244.242105263158,3925,3698,229.2,20,0,1555,1775,0,4,4,4,4,4,4,3,4,4,4,4,4,4,4,4,4
"249",3647,-157.463157894737,4170,-107.210526315789,-29.3684210526316,3451,141.905263157895,3685,4203,-199.115789473684,-243.221052631579,3929,3699,234.842105263158,21,0,1559,1771,0,4,4,4,4,4,4,3,4,4,4,4,4,4,4,4,4
"250",3651,-147.726315789474,4171,-100.031578947368,-24.2421052631579,3456,142.936842105263,3695,4203,-194.505263157895,-242.189473684211,3941,3700,243.557894736842,22,0,1559,1771,0,4,4,4,4,4,4,3,4,4,4,4,4,4,4,4,4
"251",3651,-149.263157894737,4169,-104.136842105263,-24.7578947368421,3450,138.315789473684,3696,4203,-197.578947368421,-244.757894736842,3941,3698,240.484210526316,23,0,1555,1771,0,4,4,4,4,4,4,3,4,4,4,4,4,4,4,4,4
"252",3653,-148.242105263158,4169,-103.621052631579,-23.7263157894737,3451,139.863157894737,3695,4206,-192.452631578947,-245.778947368421,3939,3698,240.989473684211,24,0,1559,1771,0,4,4,4,4,4,4,3,4,4,4,4,4,4,4,4,4
"253",3661,-146.694736842105,4177,-95.9263157894737,-18.6,3457,150.631578947368,3698,4213,-188.347368421053,-239.115789473684,3942,3702,247.663157894737,25,0,1559,1767,0,4,4,4,4,4,4,3,4,4,4,4,4,4,4,4,4
"254",3668,-144.136842105263,4177,-90.8,-10.4,3459,157.810526315789,3706,4218,-185.778947368421,-229.368421052632,3950,3708,253.305263157895,26,0,1559,1771,0,4,4,4,4,4,4,3,4,4,4,4,4,4,4,4,4
"255",3669,-136.957894736842,4178,-90.2842105263158,-5.27368421052632,3461,158.315789473684,3714,4218,-177.578947368421,-227.315789473684,3956,3710,256.378947368421,27,0,1555,1767,0,4,4,4,4,4,4,3,4,4,4,4,4,4,4,4,4
"256",3669,-130.8,4184,-84.1368421052632,-2.18947368421053,3468,163.957894736842,3723,4217,-169.884210526316,-229.884210526316,3962,3710,262.021052631579,28,0,1555,1767,0,4,4,4,4,4,4,3,4,4,4,4,4,4,4,4,4
"257",3669,-135.421052631579,4186,-79.5157894736842,-4.7578947368421,3467,167.547368421053,3728,4218,-169.884210526316,-229.884210526316,3961,3710,264.578947368421,29,0,1555,1771,0,4,4,4,4,4,4,3,4,4,4,4,4,4,4,4,4
"258",3672,-133.873684210526,4177,-85.1578947368421,-5.77894736842105,3465,167.547368421053,3729,4217,-173.473684210526,-228.347368421053,3958,3710,264.578947368421,30,0,1559,1767,0,4,4,4,4,4,4,3,4,4,4,4,4,4,4,4,4
"259",3673,-125.673684210526,4176,-85.1578947368421,-3.22105263157895,3471,170.115789473684,3732,4217,-170.915789473684,-229.884210526316,3964,3710,268.684210526316,31,0,1559,1767,0,4,4,4,4,4,4,3,4,4,4,4,4,4,4,4,4
"260",3674,-120.031578947368,4181,-74.3894736842105,-0.136842105263158,3481,173.189473684211,3743,4219,-160.136842105263,-230.915789473684,3975,3709,276.894736842105,32,0,1555,1771,0,4,4,4,4,4,4,3,4,4,4,4,4,4,4,4,4
"261",3680,-118.494736842105,4181,-69.2631578947368,-0.652631578947368,3483,171.652631578947,3754,4218,-150.4,-229.884210526316,3983,3709,288.684210526316,33,0,1559,1771,0,4,4,4,4,4,4,3,4,4,4,4,4,4,4,4,4
"262",3683,-120.031578947368,4179,-73.8736842105263,-2.18947368421053,3483,177.294736842105,3753,4219,-153.473684210526,-228.863157894737,3981,3712,289.715789473684,34,0,1555,1771,0,4,4,4,4,4,4,3,4,4,4,4,4,4,4,4,4
"263",3685,-113.368421052632,4183,-69.7789473684211,7.54736842105263,3490,190.115789473684,3755,4227,-152.452631578947,-226.810526315789,3986,3714,291.252631578947,35,0,1555,1771,0,4,4,4,4,4,4,3,4,4,4,4,4,4,4,4,4
"264",3695,-105.157894736842,4189,-60.5473684210526,17.2947368421053,3496,193.705263157895,3766,4233,-141.168421052632,-220.652631578947,3996,3718,300.989473684211,36,0,1555,1771,0,4,4,4,4,4,4,3,4,4,4,4,4,4,4,4,4
"265",3703,-100.031578947368,4189,-57.4631578947368,17.2947368421053,3500,190.631578947368,3775,4231,-133.473684210526,-215.526315789474,4002,3722,309.715789473684,37,0,1559,1771,0,4,4,4,4,4,4,3,4,4,4,4,4,4,4,4,4
"266",3703,-92.3368421052632,4189,-52.8526315789474,19.8631578947368,3508,196.778947368421,3781,4232,-127.831578947368,-213.989473684211,4008,3722,315.347368421053,38,0,1555,1767,0,4,4,4,4,4,4,3,4,4,4,4,4,4,4,4,4
"267",3714,-83.1052631578947,4189,-45.6736842105263,30.6315789473684,3515,207.042105263158,3786,4236,-117.063157894737,-211.936842105263,4018,3724,326.631578947368,39,0,1559,1771,0,4,4,4,4,4,4,3,4,4,4,4,4,4,4,4,4
"268",3722,-86.1894736842105,4193,-47.7263157894737,32.6842105263158,3511,206.526315789474,3788,4234,-117.063157894737,-210.915789473684,4019,3727,330.736842105263,40,0,1559,1771,0,4,4,4,4,4,4,3,4,4,4,4,4,4,4,4,4
"269",3718,-85.6736842105263,4190,-48.2421052631579,29.6,3516,204.989473684211,3793,4232,-120.136842105263,-211.936842105263,4019,3724,330.221052631579,41,0,1555,1771,0,4,4,4,4,4,4,3,4,4,4,4,4,4,4,4,4
"270",3721,-72.8526315789474,4190,-33.8736842105263,30.1157894736842,3531,210.631578947368,3808,4234,-105.273684210526,-212.452631578947,4032,3725,343.042105263158,42,0,1559,1771,0,4,4,4,4,4,4,3,4,4,4,4,4,4,4,4,4
"271",3731,-61.0631578947368,4195,-22.0842105263158,34.2210526315789,3539,215.757894736842,3817,4236,-90.9157894736842,-210.915789473684,4044,3731,-332.957894736842,43,0,1555,1771,0,4,4,4,4,4,4,3,4,4,4,4,4,4,4,4,4
"272",3737,-56.9578947368421,4196,-23.1052631578947,40.3684210526316,3541,216.778947368421,3817,4239,-92.9578947368421,-209.368421052632,4045,3731,-331.936842105263,44,0,1559,1771,0,4,4,4,4,4,4,3,4,4,4,4,4,4,4,4,4
"273",3738,-61.5684210526316,4195,-30.2842105263158,43.4526315789474,3536,220.368421052632,3813,4245,-101.168421052632,-210.915789473684,4038,3732,-338.094736842105,45,0,1555,1771,0,4,4,4,4,4,4,3,4,4,4,4,4,4,4,4,4
"274",3744,-60.0315789473684,4194,-29.2631578947368,50.6315789473684,3535,227.547368421053,3819,4247,-95.5263157894737,-208.863157894737,4043,3737,-334.505263157895,46,0,1563,1771,0,4,4,4,4,4,4,3,4,4,4,4,4,4,4,4,4
"275",3745,-49.7789473684211,4197,-19.5157894736842,55.2421052631579,3546,230.115789473684,3830,4245,-82.7052631578947,-202.189473684211,4055,3739,-322.705263157895,47,0,1555,1771,0,4,4,4,4,4,4,3,4,4,4,4,4,4,4,4,4
"276",3749,-43.6210526315789,4197,-13.3684210526316,48.5789473684211,3557,228.063157894737,3835,4241,-77.5789473684211,-206.810526315789,4062,3737,-311.936842105263,48,0,1559,1775,0,4,4,4,4,4,4,3,4,4,4,4,4,4,4,4,4
"277",3752,-44.1368421052632,4199,-10.2842105263158,43.9578947368421,3555,229.084210526316,3839,4242,-80.1368421052632,-210.4,4065,3737,-308.347368421053,49,0,1559,1771,0,4,4,4,4,4,4,3,4,4,4,4,4,4,4,4,4
"278",3759,-33.8736842105263,4199,-1.06315789473684,58.3157894736842,3563,238.315789473684,3849,4246,-71.4210526315789,-201.168421052632,4075,3738,-300.136842105263,50,0,1559,1775,0,4,4,4,4,4,4,3,4,4,4,4,4,4,4,4,4
"279",3767,-27.2105263157895,4201,2.02105263157895,66.5263157894737,3572,242.421052631579,3851,4248,-60.6526315789474,-195.526315789474,4079,3741,-292.452631578947,51,0,1559,1771,0,4,4,4,4,4,4,3,4,4,4,4,4,4,4,4,4
"280",3769,-30.2842105263158,4200,-4.13684210526316,62.4210526315789,3566,241.4,3849,4246,-63.7263157894737,-199.115789473684,4074,3740,-298.094736842105,52,0,1559,1775,0,4,4,4,4,4,4,3,4,4,4,4,4,4,4,4,4
"281",3768,-23.1052631578947,4200,2.02105263157895,65.4947368421053,3569,242.936842105263,3855,4247,-60.6526315789474,-199.115789473684,4081,3742,-295.010526315789,53,0,1559,1771,0,4,4,4,4,4,4,3,4,4,4,4,4,4,4,4,4
"282",3770,-21.0631578947368,4202,7.66315789473684,67.5473684210526,3576,246.010526315789,3857,4248,-56.5473684210526,-198.094736842105,4084,3744,-289.884210526316,54,0,1559,1775,0,4,4,4,4,4,4,3,4,4,4,4,4,4,4,4,4
"283",3769,-33.3684210526316,4199,0.484210526315789,63.9578947368421,3565,244.989473684211,3847,4246,-66.2947368421053,-198.6,4072,3741,-301.168421052632,55,0,1559,1771,0,4,4,4,4,4,4,3,4,4,4,4,4,4,4,4,4
"284",3758,-39.0105263157895,4200,-7.21052631578947,58.8315789473684,3553,241.905263157895,3842,4246,-75.0105263157895,-200.652631578947,4062,3740,-315.010526315789,56,0,1551,1775,0,4,4,4,4,4,4,3,4,4,4,4,4,4,4,4,4
"285",3756,-27.7263157894737,4198,0.484210526315789,58.3157894736842,3566,244.989473684211,3850,4246,-66.2947368421053,-204.757894736842,4070,3742,-303.221052631579,57,0,1559,1775,0,4,4,4,4,4,4,3,4,4,4,4,4,4,4,4,4
"286",3765,-23.6210526315789,4199,11.2526315789474,63.9578947368421,3576,247.547368421053,3856,4247,-59.1157894736842,-202.189473684211,4082,3742,-290.915789473684,58,0,1559,1767,0,4,4,4,4,4,4,3,4,4,4,4,4,4,4,4,4
"287",3775,-24.1368421052632,4201,10.7368421052632,78.8315789473684,3575,251.136842105263,3853,4247,-60.1368421052632,-197.063157894737,4083,3744,-290.4,59,0,1555,1771,0,4,4,4,4,4,4,3,4,4,4,4,4,4,4,4,4
"288",3779,-22.0842105263158,4202,5.61052631578947,90.6315789473684,3572,255.757894736842,3851,4249,-62.7052631578947,-198.6,4080,3745,-293.989473684211,60,0,1559,1771,0,4,4,4,4,4,4,3,4,4,4,4,4,4,4,4,4
"289",3780,-24.1368421052632,4201,0.989473684210526,94.2210526315789,3562,259.863157894737,3848,4249,-69.3684210526316,-199.631578947368,4073,3748,-300.652631578947,61,0,1559,1771,0,4,4,4,4,4,4,3,4,4,4,4,4,4,4,4,4
"290",3781,-24.6526315789474,4204,2.02105263157895,93.7052631578947,3555,259.863157894737,3845,4249,-72.4526315789474,-196.042105263158,4067,3753,-304.757894736842,62,0,1555,1771,0,4,4,4,4,4,4,3,4,4,4,4,4,4,4,4,4
"291",3785,-17.9789473684211,4206,5.61052631578947,96.2736842105263,3559,262.421052631579,3847,4250,-64.2421052631579,-196.042105263158,4072,3754,-302.705263157895,63,0,1559,1771,0,4,4,4,4,4,4,3,4,4,4,4,4,4,4,4,4
"292",3787,-13.8736842105263,4203,7.66315789473684,99.3473684210526,3562,268.578947368421,3851,4250,-59.6315789473684,-197.578947368421,4077,3752,-299.631578947368,64,0,1555,1771,353,4,4,4,4,4,4,3,4,4,4,4,4,4,4,4,4
"293",3780,-24.6526315789474,4202,0.989473684210526,96.2736842105263,3555,269.084210526316,3839,4249,-70.4,-197.063157894737,4064,3753,-308.863157894737,65,0,1559,1775,505,4,4,4,4,4,4,3,4,4,4,4,4,4,4,4,4
"294",3779,-33.3684210526316,4201,-2.6,96.2736842105263,3552,266.526315789474,3832,4247,-78.0947368421053,-198.094736842105,4054,3751,-317.578947368421,66,0,1555,1771,541,4,4,4,4,4,4,3,4,4,4,4,4,4,4,4,4
"295",3783,-28.7473684210526,4203,3.55789473684211,103.452631578947,3554,270.115789473684,3839,4253,-72.9578947368421,-199.115789473684,4060,3750,-315.010526315789,67,0,1559,1775,556,4,4,4,4,4,4,3,4,4,4,4,4,4,4,4,4
"296",3790,-13.3684210526316,4211,17.9157894736842,116.273684210526,3564,282.421052631579,3851,4262,-59.1157894736842,-193.473684210526,4076,3757,-300.652631578947,68,0,1555,1775,503,4,4,4,4,4,4,3,4,4,4,4,4,4,4,4,4
"297",3799,-5.15789473684211,4219,29.2,121.905263157895,3573,290.115789473684,3861,4265,-48.8631578947368,-186.810526315789,4090,3762,-289.368421052632,69,0,1559,1775,473,4,4,4,4,4,4,3,4,4,4,4,4,4,4,4,4
"298",3803,-6.18947368421053,4212,30.2210526315789,118.831578947368,3580,288.063157894737,3866,4263,-49.8842105263158,-189.368421052632,4093,3761,-288.863157894737,70,0,1559,1771,437,4,4,4,4,4,4,3,4,4,4,4,4,4,4,4,4
"299",3796,-3.10526315789474,4210,29.7157894736842,116.778947368421,3583,287.042105263158,3864,4263,-51.4210526315789,-192.452631578947,4088,3759,-289.884210526316,71,0,1555,1779,587,4,4,4,4,4,4,3,4,4,4,4,4,4,4,4,4
"300",3793,2.02105263157895,4216,30.2210526315789,121.4,3581,294.726315789474,3862,4265,-48.8631578947368,-189.368421052632,4088,3762,-291.421052631579,72,0,1559,1775,634,4,4,4,4,4,4,3,4,4,4,4,4,4,4,4,4
"301",3795,6.12631578947368,4216,32.7894736842105,127.042105263158,3582,303.452631578947,3867,4267,-46.8105263157895,-182.705263157895,4093,3767,-288.863157894737,73,0,1555,1775,627,4,4,4,4,4,4,3,4,4,4,4,4,4,4,4,4
"302",3796,12.7894736842105,4214,34.3263157894737,126.526315789474,3588,303.452631578947,3866,4267,-48.3473684210526,-183.221052631579,4093,3769,-286.810526315789,74,0,1555,1775,594,4,4,4,4,4,4,3,4,4,4,4,4,4,4,4,4
"303",3797,16.8947368421053,4217,38.4315789473684,125.494736842105,3591,302.421052631579,3869,4266,-44.2421052631579,-190.915789473684,4097,3765,-284.242105263158,75,0,1555,1775,561,4,4,4,4,4,4,3,4,4,4,4,4,4,4,4,4
"304",3799,14.8421052631579,4218,43.5578947368421,124.473684210526,3589,303.452631578947,3877,4269,-37.0631578947368,-189.884210526316,4105,3766,-279.115789473684,76,0,1555,1775,573,4,4,4,4,4,4,3,4,4,4,4,4,4,4,4,4
"305",3804,23.0421052631579,4215,48.6842105263158,128.578947368421,3601,307.042105263158,3884,4277,-28.8631578947368,-181.684210526316,4111,3770,-271.421052631579,77,0,1551,1775,585,4,4,4,4,4,4,3,4,4,4,4,4,4,4,4,4
"306",3799,27.6631578947368,4222,49.2,129.6,3604,307.547368421053,3882,4279,-32.4526315789474,-181.168421052632,4109,3768,-276.547368421053,78,0,1551,1775,594,4,4,4,4,4,4,3,4,4,4,4,4,4,4,4,4
"307",3793,23.5578947368421,4222,46.1263157894737,126.010526315789,3593,306.010526315789,3878,4269,-39.6315789473684,-185.273684210526,4105,3766,-283.726315789474,79,0,1555,1771,561,4,4,4,4,4,4,3,4,4,4,4,4,4,4,4,4
"308",3795,19.4526315789474,4217,45.0947368421053,124.473684210526,3585,307.042105263158,3878,4270,-39.6315789473684,-181.684210526316,4103,3768,-283.726315789474,80,0,1551,1775,573,4,4,4,4,4,4,3,4,4,4,4,4,4,4,4,4
"309",3798,20.9894736842105,4217,47.1473684210526,125.494736842105,3592,308.063157894737,3878,4278,-38.6,-181.168421052632,4103,3767,-285.778947368421,81,0,1555,1775,585,4,4,4,4,4,4,3,4,4,4,4,4,4,4,4,4
"310",3793,22.0210526315789,4218,49.7157894736842,124.989473684211,3600,307.042105263158,3876,4277,-37.5789473684211,-184.242105263158,4105,3762,-285.778947368421,82,0,1555,1771,594,4,4,4,4,4,4,3,4,4,4,4,4,4,4,4,4
"311",3789,18.9368421052632,4217,47.1473684210526,126.526315789474,3594,308.063157894737,3878,4274,-36.0421052631579,-183.221052631579,4105,3761,-285.273684210526,83,0,1555,1771,561,4,4,4,4,4,4,3,4,4,4,4,4,4,4,4,4
"312",3787,13.8105263157895,4216,45.6105263157895,122.936842105263,3588,308.578947368421,3879,4274,-39.6315789473684,-187.315789473684,4101,3761,-290.915789473684,84,0,1551,1775,573,4,4,4,4,4,4,3,4,4,4,4,4,4,4,4,4
"313",3779,10.7368421052632,4216,44.0736842105263,110.115789473684,3586,304.473684210526,3867,4266,-47.8315789473684,-196.547368421053,4091,3757,-298.6,85,0,1559,1771,585,4,4,4,4,4,4,3,4,4,4,4,4,4,4,4,4
"314",3785,18.9368421052632,4215,45.6105263157895,113.189473684211,3590,306.526315789474,3867,4265,-45.7789473684211,-193.473684210526,4093,3759,-291.936842105263,86,0,1551,1771,594,4,4,4,4,4,4,3,4,4,4,4,4,4,4,4,4
"315",3790,19.9684210526316,4217,45.6105263157895,120.884210526316,3590,310.115789473684,3874,4274,-44.7578947368421,-185.273684210526,4097,3762,-292.957894736842,87,0,1555,1775,561,4,4,4,4,4,4,3,4,4,4,4,4,4,4,4,4
"316",3777,12.7894736842105,4214,39.9684210526316,113.189473684211,3587,306.010526315789,3866,4272,-51.9368421052632,-191.421052631579,4090,3756,-303.726315789474,88,0,1555,1771,573,4,4,4,4,4,4,3,4,4,4,4,4,4,4,4,4
"317",3770,13.8105263157895,4214,39.4526315789474,105.494736842105,3585,303.957894736842,3857,4267,-52.9578947368421,-195.526315789474,4085,3753,-300.652631578947,89,0,1555,1775,585,4,4,4,4,4,4,3,4,4,4,4,4,4,4,4,4
"318",3784,24.0736842105263,4217,47.6631578947368,118.315789473684,3590,310.115789473684,3869,4269,-46.2947368421053,-189.884210526316,4096,3759,-290.4,90,0,1555,1771,594,4,4,4,4,4,4,3,4,4,4,4,4,4,4,4,4
"319",3789,25.6105263157895,4218,50.2210526315789,123.957894736842,3595,310.115789473684,3877,4268,-44.7578947368421,-190.915789473684,4104,3757,-289.884210526316,91,0,1555,1775,561,4,4,4,4,4,4,3,4,4,4,4,4,4,4,4,4
"320",3774,20.4842105263158,4215,42.0210526315789,113.705263157895,3588,306.010526315789,3865,4266,-51.4210526315789,-197.063157894737,4092,3754,-295.010526315789,92,0,1555,1771,573,4,4,4,4,4,4,3,4,4,4,4,4,4,4,4,4
"321",3768,21.5052631578947,4215,44.0736842105263,111.136842105263,3587,307.042105263158,3863,4267,-49.3684210526316,-196.547368421053,4090,3755,-294.505263157895,93,0,1555,1775,585,4,4,4,4,4,4,3,4,4,4,4,4,4,4,4,4
"322",3772,19.9684210526316,4216,44.5789473684211,113.189473684211,3588,307.042105263158,3865,4266,-53.4736842105263,-195.010526315789,4092,3754,-300.652631578947,94,0,1559,1771,594,4,4,4,4,4,4,3,4,4,4,4,4,4,4,4,4
"323",3771,11.2526315789474,4215,31.2526315789474,111.652631578947,3574,305.494736842105,3849,4265,-70.9157894736842,-197.578947368421,4077,3753,-311.936842105263,95,0,1551,1771,561,4,4,4,4,4,4,3,4,4,4,4,4,4,4,4,4
"324",3768,7.66315789473684,4216,29.7157894736842,110.115789473684,3569,306.526315789474,3842,4270,-74.5052631578947,-197.063157894737,4070,3755,-316.042105263158,96,0,1555,1775,573,4,4,4,4,4,4,3,4,4,4,4,4,4,4,4,4
"325",3776,24.0736842105263,4215,52.2736842105263,110.631578947368,3597,308.578947368421,3868,4269,-50.9157894736842,-197.063157894737,4094,3755,-299.115789473684,97,0,1559,1767,585,4,4,4,4,4,4,3,4,4,4,4,4,4,4,4,4
"326",3778,42.5368421052632,4215,66.1263157894737,107.042105263158,3619,306.526315789474,3885,4265,-32.9578947368421,-198.094736842105,4113,3752,-278.094736842105,98,0,1555,1771,594,4,4,4,4,4,4,3,4,4,4,4,4,4,4,4,4
"327",3774,46.1263157894737,4215,65.6105263157895,106.010526315789,3619,306.526315789474,3884,4265,-32.9578947368421,-199.631578947368,4114,3751,-273.473684210526,99,0,1555,1771,561,4,4,4,4,4,4,3,4,4,4,4,4,4,4,4,4
"328",3779,43.5578947368421,4216,68.6842105263158,103.452631578947,3617,309.084210526316,3887,4267,-33.9894736842105,-200.136842105263,4116,3753,-279.115789473684,100,0,1559,1771,573,4,4,4,4,4,4,3,4,4,4,4,4,4,4,4,4
"329",3788,46.6315789473684,4216,70.2210526315789,103.452631578947,3616,313.705263157895,3888,4267,-32.4526315789474,-199.115789473684,4116,3753,-279.115789473684,101,0,1555,1771,585,4,4,4,4,4,4,3,4,4,4,4,4,4,4,4,4
"330",3784,48.1684210526316,4217,64.0736842105263,102.421052631579,3605,313.18947368421,3881,4266,-39.1157894736842,-199.631578947368,4106,3749,-284.757894736842,102,0,1559,1775,594,4,4,4,4,4,4,3,4,4,4,4,4,4,4,4,4
"331",3777,44.0736842105263,4214,55.3473684210526,96.778947368421,3594,309.6,3870,4264,-52.9578947368421,-201.684210526316,4094,3745,-301.168421052632,103,0,1555,1775,561,4,4,4,4,4,4,3,4,4,4,4,4,4,4,4,4
"332",3782,44.0736842105263,4209,55.8631578947368,98.3157894736842,3598,312.168421052632,3869,4264,-52.4526315789474,-198.6,4092,3745,-302.18947368421,104,0,1559,1775,573,4,4,4,4,4,4,3,4,4,4,4,4,4,4,4,4
"333",3786,44.5789473684211,4213,55.3473684210526,100.368421052632,3597,318.315789473684,3870,4265,-49.3684210526316,-200.136842105263,4093,3745,-298.6,105,0,1555,1775,585,4,4,4,4,4,4,3,4,4,4,4,4,4,4,4,4
"334",3784,48.1684210526316,4217,50.7368421052632,99.3473684210526,3589,318.315789473684,3867,4264,-59.1157894736842,-207.315789473684,4089,3744,-303.726315789474,106,0,1559,1779,594,4,4,4,4,4,4,3,4,4,4,4,4,4,4,4,4
"335",3783,52.7894736842105,4216,52.2736842105263,103.452631578947,3593,318.315789473684,3870,4265,-59.1157894736842,-204.757894736842,4088,3746,-303.221052631579,107,0,1555,1775,561,4,4,4,4,4,4,3,4,4,4,4,4,4,4,4,4
"336",3790,65.0947368421053,4216,66.1263157894737,112.684210526316,3609,323.957894736842,3883,4269,-41.6842105263158,-195.526315789474,4106,3753,-287.831578947368,108,0,1555,1783,573,4,4,4,4,4,4,3,4,4,4,4,4,4,4,4,4
"337",3793,69.2,4220,70.2210526315789,110.631578947368,3610,324.989473684211,3882,4270,-40.1368421052632,-196.042105263158,4109,3755,-286.294736842105,109,0,1559,1775,585,4,4,4,4,4,4,3,4,4,4,4,4,4,4,4,4
"338",3791,66.1263157894737,4217,61.5052631578947,106.526315789474,3603,321.4,3874,4268,-51.4210526315789,-200.652631578947,4093,3751,-298.6,110,0,1551,1779,594,4,4,4,4,4,4,3,4,4,4,4,4,4,4,4,4
"339",3795,69.7157894736842,4216,58.9368421052632,108.063157894737,3605,321.4,3877,4267,-48.3473684210526,-199.631578947368,4096,3750,-297.578947368421,111,0,1559,1779,561,4,4,4,4,4,4,3,4,4,4,4,4,4,4,4,4
"340",3801,80.9894736842105,4217,61.5052631578947,112.684210526316,3608,328.063157894737,3879,4273,-45.7789473684211,-198.094736842105,4105,3752,-291.421052631579,112,0,1555,1779,573,4,4,4,4,4,4,3,4,4,4,4,4,4,4,4,4
"341",3802,85.6105263157895,4218,67.1473684210526,115.757894736842,3611,334.726315789474,3881,4278,-46.2947368421053,-198.094736842105,4105,3754,-289.884210526316,113,0,1555,1775,585,4,4,4,4,4,4,3,4,4,4,4,4,4,4,4,4
"342",3804,83.5578947368421,4220,65.6105263157895,112.168421052632,3609,335.242105263158,3881,4277,-46.2947368421053,-197.063157894737,4105,3754,-291.421052631579,114,0,1555,1779,594,4,4,4,4,4,4,3,4,4,4,4,4,4,4,4,4
"343",3809,88.1684210526316,4220,64.5789473684211,114.221052631579,3607,335.757894736842,3881,4277,-46.2947368421053,-196.547368421053,4109,3754,-290.915789473684,115,0,1559,1779,561,4,4,4,4,4,4,3,4,4,4,4,4,4,4,4,4
"344",3805,88.1684210526316,4223,62.0210526315789,116.273684210526,3606,337.810526315789,3877,4281,-48.8631578947368,-195.010526315789,4103,3753,-292.957894736842,116,0,1551,1771,573,4,4,4,4,4,4,3,4,4,4,4,4,4,4,4,4
"345",3805,86.1263157894737,4223,63.0421052631579,117.810526315789,3609,338.315789473684,3881,4281,-46.8105263157895,-196.042105263158,4101,3754,-291.936842105263,117,0,1555,1779,585,4,4,4,4,4,4,3,4,4,4,4,4,4,4,4,4
"346",3814,91.2526315789474,4226,71.2526315789474,121.905263157895,3615,337.810526315789,3891,4281,-41.1684210526316,-196.547368421053,4107,3757,-287.831578947368,118,0,1555,1775,594,4,4,4,4,4,4,3,4,4,4,4,4,4,4,4,4
"347",3818,97.4,4224,70.7368421052632,123.452631578947,3617,337.810526315789,3890,4281,-42.1894736842105,-196.547368421053,4109,3757,-288.863157894737,119,0,1555,1775,561,4,4,4,4,4,4,3,4,4,4,4,4,4,4,4,4
"348",3815,95.3473684210526,4223,64.0736842105263,115.757894736842,3610,334.221052631579,3882,4279,-47.8315789473684,-197.063157894737,4103,3753,-290.4,120,0,1551,1775,573,4,4,4,4,4,4,3,4,4,4,4,4,4,4,4,4
"349",3815,92.7894736842105,4224,62.5368421052632,112.684210526316,3606,334.221052631579,3880,4277,-48.8631578947368,-199.115789473684,4101,3752,-290.4,121,0,1555,1779,585,4,4,4,4,4,4,3,4,4,4,4,4,4,4,4,4
"350",3817,95.8631578947368,4222,65.6105263157895,114.221052631579,3604,337.294736842105,3880,4276,-47.3157894736842,-205.778947368421,4102,3755,-292.452631578947,122,0,1559,1771,594,4,4,4,4,4,4,3,4,4,4,4,4,4,4,4,4
"351",3815,96.8947368421053,4216,63.5578947368421,109.6,3607,336.778947368421,3879,4277,-49.3684210526316,-210.915789473684,4101,3752,-293.989473684211,123,0,1547,1775,561,4,4,4,4,4,4,3,4,4,4,4,4,4,4,4,4
"352",3816,104.578947368421,4215,65.6105263157895,109.6,3615,335.242105263158,3887,4273,-46.2947368421053,-210.4,4103,3745,-290.4,124,0,1555,1775,573,4,4,4,4,4,4,3,4,4,4,4,4,4,4,4,4
"353",3817,109.715789473684,4218,65.6105263157895,110.115789473684,3612,335.242105263158,3887,4266,-48.3473684210526,-210.915789473684,4100,3744,-290.915789473684,125,0,1555,1771,585,4,4,4,4,4,4,3,4,4,4,4,4,4,4,4,4
"354",3818,107.663157894737,4215,60.9894736842105,110.115789473684,3603,336.273684210526,3879,4265,-56.0421052631579,-213.473684210526,4092,3746,-298.094736842105,126,0,1551,1775,594,4,4,4,4,4,4,3,4,4,4,4,4,4,4,4,4
"355",3818,105.610526315789,4217,58.9368421052632,108.063157894737,3603,336.273684210526,3877,4267,-59.1157894736842,-212.452631578947,4091,3745,-303.726315789474,127,0,1555,1775,561,4,4,4,4,4,4,3,4,4,4,4,4,4,4,4,4
"356",3817,107.663157894737,4218,59.9684210526316,109.084210526316,3607,336.273684210526,3879,4264,-56.5473684210526,-211.421052631579,4093,3744,-300.136842105263,128,0,1555,1775,573,4,4,4,4,4,4,4,4,4,4,4,4,4,4,4,4
"357",3817,104.073684210526,4218,59.9684210526316,110.115789473684,3603,335.757894736842,3876,4264,-58.0947368421053,-213.473684210526,4090,3745,-298.094736842105,0,0,1555,1775,353,4,4,4,4,4,4,3,4,4,4,4,4,4,4,4,4
"358",3818,102.021052631579,4217,60.4842105263158,109.6,3607,335.242105263158,3874,4267,-59.1157894736842,-213.989473684211,4087,3744,-301.168421052632,1,0,1555,1775,505,4,4,4,4,4,4,3,4,4,4,4,4,4,4,4,4
"359",3816,107.147368421053,4221,65.0947368421053,108.578947368421,3614,336.273684210526,3879,4265,-51.9368421052632,-212.452631578947,4091,3745,-298.094736842105,2,0,1555,1771,541,4,4,4,4,4,4,3,4,4,4,4,4,4,4,4,4
"360",3817,111.252631578947,4223,68.1684210526316,113.705263157895,3616,339.347368421053,3883,4264,-47.3157894736842,-211.421052631579,4093,3751,-291.421052631579,3,0,1551,1775,556,4,4,4,4,4,4,3,4,4,4,4,4,4,4,4,4
"361",3822,112.273684210526,4221,72.7894736842105,118.831578947368,3616,339.347368421053,3883,4269,-46.8105263157895,-210.915789473684,4094,3755,-289.884210526316,4,0,1559,1775,503,4,4,4,4,4,4,3,4,4,4,4,4,4,4,4,4
"362",3823,109.715789473684,4221,73.8105263157895,113.189473684211,3613,338.315789473684,3880,4272,-50.9157894736842,-211.421052631579,4092,3751,-298.6,5,0,1555,1771,473,4,4,4,4,4,4,3,4,4,4,4,4,4,4,4,4
"363",3821,108.168421052632,4219,71.7578947368421,112.168421052632,3616,338.315789473684,3879,4267,-52.9578947368421,-213.473684210526,4092,3745,-301.684210526316,6,0,1555,1779,437,4,4,4,4,4,4,3,4,4,4,4,4,4,4,4,4
"364",3820,109.2,4222,70.7368421052632,114.726315789474,3615,340.884210526316,3881,4265,-50.9157894736842,-213.989473684211,4093,3748,-301.168421052632,7,0,1555,1779,587,4,4,4,4,4,4,3,4,4,4,4,4,4,4,4,4
"365",3823,111.757894736842,4222,73.8105263157895,115.242105263158,3609,-343.326315789474,3884,4267,-50.4,-212.957894736842,4095,3750,-300.136842105263,8,0,1555,1775,634,4,4,4,4,4,4,3,4,4,4,4,4,4,4,4,4
"366",3821,104.578947368421,4223,70.7368421052632,112.168421052632,3604,-344.357894736842,3876,4267,-59.6315789473684,-214.505263157895,4088,3747,-306.810526315789,9,0,1555,1775,627,4,4,4,4,4,4,3,4,4,4,4,4,4,4,4,4
"367",3818,101.505263157895,4221,63.0421052631579,110.115789473684,3605,343.957894736842,3871,4266,-64.7578947368421,-214.505263157895,4082,3745,-312.452631578947,10,0,1559,1775,594,4,4,4,4,4,4,3,4,4,4,4,4,4,4,4,4
"368",3819,105.094736842105,4220,63.0421052631579,112.168421052632,3606,-342.305263157895,3875,4267,-58.0947368421053,-213.989473684211,4083,3747,-311.421052631579,11,0,1555,1775,560,4,4,4,4,4,4,3,4,4,4,4,4,4,4,4,4
"369",3818,103.557894736842,4217,63.5578947368421,112.168421052632,3606,343.957894736842,3875,4266,-59.6315789473684,-220.136842105263,4083,3745,-313.989473684211,12,0,1559,1775,573,4,4,4,4,4,4,3,4,4,4,4,4,4,4,4,4
"370",3809,90.7368421052632,4215,51.7578947368421,101.4,3594,334.221052631579,3857,4264,-78.0947368421053,-228.863157894737,4069,3738,-329.884210526316,13,0,1555,1775,585,4,4,4,4,4,4,3,4,4,4,4,4,4,4,4,4
"371",3799,73.3052631578947,4214,28.6842105263158,88.5789473684211,3565,333.705263157895,3832,4262,-103.726315789474,-229.368421052632,4039,3735,332.789473684211,14,0,1559,1775,594,4,4,4,4,4,4,3,4,4,4,4,4,4,4,4,4
"372",3802,73.8105263157895,4213,28.1684210526316,91.1368421052632,3566,339.347368421053,3830,4263,-103.726315789474,-226.294736842105,4034,3736,327.663157894737,15,0,1555,1775,560,4,4,4,4,4,4,3,4,4,4,4,4,4,4,4,4
"373",3808,88.6842105263158,4216,47.1473684210526,91.1368421052632,3591,336.778947368421,3848,4266,-86.2947368421053,-227.315789473684,4055,3738,-342.705263157895,16,0,1559,1775,0,4,4,4,4,4,4,3,4,4,4,4,4,4,4,4,4
"374",3812,96.8947368421053,4216,53.8105263157895,90.1157894736842,3597,336.273684210526,3859,4264,-80.6526315789474,-228.863157894737,4070,3738,-331.421052631579,17,0,1559,1771,0,4,4,4,4,4,4,3,4,4,4,4,4,4,4,4,4
"375",3810,84.5789473684211,4216,44.0736842105263,90.6315789473684,3581,339.347368421053,3848,4264,-91.4210526315789,-228.347368421053,4055,3739,344.073684210526,18,0,1555,1779,0,4,4,4,4,4,4,3,4,4,4,4,4,4,4,4,4
"376",3806,80.4842105263158,4214,41.5052631578947,86.5263157894737,3577,339.863157894737,3841,4264,-97.0631578947368,-228.863157894737,4042,3739,333.305263157895,19,0,1559,1771,0,4,4,4,4,4,4,3,4,4,4,4,4,4,4,4,4
"377",3802,87.1473684210526,4213,47.6631578947368,77.8105263157895,3585,336.778947368421,3848,4263,-93.9894736842105,-229.368421052632,4048,3734,338.431578947368,20,0,1555,1771,0,4,4,4,4,4,4,3,4,4,4,4,4,4,4,4,4
"378",3804,85.0947368421053,4207,46.1263157894737,76.2736842105263,3582,333.18947368421,3849,4259,-94.5052631578947,-231.421052631579,4047,3730,338.936842105263,21,0,1559,1771,0,4,4,4,4,4,4,3,4,4,4,4,4,4,4,4,4
"379",3807,77.9157894736842,4205,36.3789473684211,74.2210526315789,3572,333.18947368421,3838,4258,-100.652631578947,-231.936842105263,4035,3729,330.221052631579,22,0,1555,1775,0,4,4,4,4,4,4,3,4,4,4,4,4,4,4,4,4
"380",3806,75.8631578947368,4208,29.7157894736842,70.1157894736842,3568,334.221052631579,3830,4259,-107.831578947368,-231.421052631579,4029,3730,323.042105263158,23,0,1559,1775,0,4,4,4,4,4,4,3,4,4,4,4,4,4,4,4,4
"381",3807,79.9684210526316,4209,37.9157894736842,73.1894736842105,3573,334.726315789474,3841,4264,-103.221052631579,-230.915789473684,4038,3729,327.663157894737,24,0,1555,1775,0,4,4,4,4,4,4,3,4,4,4,4,4,4,4,4,4
"382",3806,77.4,4211,42.0210526315789,76.7789473684211,3573,334.726315789474,3844,4261,-99.6315789473684,-229.884210526316,4040,3728,330.736842105263,25,0,1559,1775,0,4,4,4,4,4,4,3,4,4,4,4,4,4,4,4,4
"383",3806,76.3789473684211,4208,37.9157894736842,74.2210526315789,3572,334.726315789474,3838,4254,-105.273684210526,-231.936842105263,4035,3726,327.147368421053,26,0,1555,1775,0,4,4,4,4,4,4,3,4,4,4,4,4,4,4,4,4
"384",3804,75.8631578947368,4205,35.8631578947368,73.1894736842105,3571,334.221052631579,3834,4255,-110.915789473684,-238.094736842105,4033,3724,320.484210526316,27,0,1555,1775,0,4,4,4,4,4,4,3,4,4,4,4,4,4,4,4,4
"385",3803,75.3473684210526,4202,37.4,77.2947368421053,3573,335.757894736842,3836,4258,-109.368421052632,-242.189473684211,4033,3725,323.042105263158,28,0,1559,1775,0,4,4,4,4,4,4,3,4,4,4,4,4,4,4,4,4
"386",3801,76.3789473684211,4208,36.3789473684211,71.1368421052632,3572,335.757894736842,3837,4257,-108.347368421053,-240.652631578947,4035,3725,328.684210526316,29,0,1555,1771,0,4,4,4,4,4,4,3,4,4,4,4,4,4,4,4,4
"387",3802,75.3473684210526,4207,32.2736842105263,69.6,3566,335.242105263158,3834,4253,-115.010526315789,-241.168421052632,4030,3724,322.536842105263,30,0,1555,1775,0,4,4,4,4,4,4,3,4,4,4,4,4,4,4,4,4
"388",3802,73.3052631578947,4203,28.6842105263158,73.1894736842105,3564,336.273684210526,3828,4251,-121.168421052632,-244.757894736842,4021,3724,311.252631578947,31,0,1559,1775,0,4,4,4,4,4,4,3,4,4,4,4,4,4,4,4,4
"389",3798,75.8631578947368,4201,26.1263157894737,67.5473684210526,3563,336.778947368421,3821,4250,-121.684210526316,-244.757894736842,4019,3723,308.168421052632,32,0,1559,1771,0,4,4,4,4,4,4,3,4,4,4,4,4,4,4,4,4
"390",3792,76.8947368421053,4201,28.6842105263158,60.8842105263158,3559,335.242105263158,3819,4250,-122.705263157895,-243.726315789474,4022,3719,310.736842105263,33,0,1555,1775,0,4,4,4,4,4,4,3,4,4,4,4,4,4,4,4,4
"391",3787,66.6315789473684,4201,23.5578947368421,61.4,3556,335.242105263158,3817,4249,-130.915789473684,-245.273684210526,4012,3719,305.610526315789,34,0,1559,1771,0,4,4,4,4,4,4,3,4,4,4,4,4,4,4,4,4
"392",3791,63.5578947368421,4199,21.5052631578947,61.4,3557,336.778947368421,3817,4249,-132.452631578947,-245.778947368421,4009,3721,304.578947368421,35,0,1555,1771,0,4,4,4,4,4,4,3,4,4,4,4,4,4,4,4,4
"393",3793,63.0421052631579,4201,20.4842105263158,59.8631578947368,3555,337.810526315789,3815,4250,-131.936842105263,-244.242105263158,4010,3720,303.557894736842,36,0,1555,1775,0,4,4,4,4,4,4,3,4,4,4,4,4,4,4,4,4
"394",3789,49.7157894736842,4200,6.63157894736842,62.4210526315789,3547,337.810526315789,3805,4248,-142.189473684211,-244.757894736842,3998,3717,289.715789473684,37,0,1559,1771,0,4,4,4,4,4,4,3,4,4,4,4,4,4,4,4,4
"395",3782,30.2210526315789,4201,-7.72631578947368,56.7789473684211,3534,335.242105263158,3790,4247,-158.6,-247.831578947368,3981,3714,270.221052631579,38,0,1559,1775,0,4,4,4,4,4,4,3,4,4,4,4,4,4,4,4,4
"396",3779,29.7157894736842,4196,-5.67368421052632,50.6315789473684,3530,335.757894736842,3789,4246,-162.705263157895,-248.347368421053,3980,3714,266.631578947368,39,0,1555,1771,0,4,4,4,4,4,4,3,4,4,4,4,4,4,4,4,4
"397",3779,36.8947368421053,4194,-0.0315789473684211,48.5789473684211,3538,332.684210526316,3797,4247,-154.505263157895,-246.294736842105,3990,3713,274.326315789474,40,0,1555,1775,0,4,4,4,4,4,4,3,4,4,4,4,4,4,4,4,4
"398",3776,40.4842105263158,4193,-2.08421052631579,45.4947368421053,3542,323.452631578947,3799,4244,-150.4,-249.884210526316,3993,3711,276.894736842105,41,0,1559,1771,0,4,4,4,4,4,4,3,4,4,4,4,4,4,4,4,4
"399",3776,43.0421052631579,4195,5.09473684210526,44.9894736842105,3543,321.4,3801,4243,-149.368421052632,-251.421052631579,3997,3711,278.936842105263,42,0,1555,1775,0,4,4,4,4,4,4,3,4,4,4,4,4,4,4,4,4
"400",3784,46.6315789473684,4194,11.2526315789474,47.5473684210526,3543,330.631578947368,3803,4245,-149.368421052632,-249.368421052632,3997,3714,278.431578947368,43,0,1559,1775,0,4,4,4,4,4,4,3,4,4,4,4,4,4,4,4,4
"401",3783,46.1263157894737,4193,8.16842105263158,49.0842105263158,3542,332.168421052632,3802,4243,-148.347368421053,-253.473684210526,3994,3713,273.810526315789,44,0,1559,1771,0,4,4,4,4,4,4,3,4,4,4,4,4,4,4,4,4
"402",3771,36.8947368421053,4192,0.989473684210526,47.0421052631579,3540,324.473684210526,3798,4237,-151.936842105263,-259.115789473684,3990,3710,269.2,45,0,1559,1771,0,4,4,4,4,4,4,3,4,4,4,4,4,4,4,4,4
"403",3772,35.3473684210526,4190,2.02105263157895,44.9894736842105,3541,322.936842105263,3799,4236,-153.473684210526,-259.631578947368,3989,3706,270.221052631579,46,0,1555,1771,0,4,4,4,4,4,4,3,4,4,4,4,4,4,4,4,4
"404",3779,41.5052631578947,4191,9.2,44.9894736842105,3539,325.494736842105,3800,4237,-152.957894736842,-257.578947368421,3991,3707,269.715789473684,47,0,1559,1771,0,4,4,4,4,4,4,3,4,4,4,4,4,4,4,4,4
"405",3783,51.2526315789474,4188,13.8105263157895,52.6842105263158,3546,329.6,3804,4237,-149.368421052632,-257.578947368421,4001,3709,271.757894736842,48,0,1559,1771,0,4,4,4,4,4,4,3,4,4,4,4,4,4,4,4,4
"406",3785,55.3473684210526,4192,14.3263157894737,53.1894736842105,3552,333.18947368421,3809,4238,-146.294736842105,-257.578947368421,4005,3708,277.4,49,0,1559,1771,0,4,4,4,4,4,4,3,4,4,4,4,4,4,4,4,4
"407",3789,55.8631578947368,4191,13.8105263157895,48.0631578947368,3549,333.705263157895,3806,4236,-146.294736842105,-260.652631578947,4001,3707,279.968421052632,50,0,1559,1771,0,4,4,4,4,4,4,3,4,4,4,4,4,4,4,4,4
"408",3788,57.9157894736842,4186,14.8421052631579,46.0105263157895,3548,332.168421052632,3802,4232,-148.347368421053,-262.18947368421,4001,3706,276.894736842105,51,0,1559,1771,0,4,4,4,4,4,4,3,4,4,4,4,4,4,4,4,4
"409",3784,61.5052631578947,4184,14.3263157894737,49.0842105263158,3553,333.18947368421,3805,4233,-147.831578947368,-260.136842105263,4005,3701,274.842105263158,52,0,1555,1771,0,4,4,4,4,4,4,3,4,4,4,4,4,4,4,4,4
"410",3786,63.0421052631579,4185,22.5368421052632,50.1157894736842,3559,335.757894736842,3814,4234,-139.115789473684,-261.168421052632,4014,3701,284.073684210526,53,0,1563,1771,0,4,4,4,4,4,4,3,4,4,4,4,4,4,4,4,4
"411",3788,65.0947368421053,4189,32.2736842105263,50.6315789473684,3565,334.726315789474,3819,4234,-131.936842105263,-261.168421052632,4024,3706,292.789473684211,54,0,1551,1771,0,4,4,4,4,4,4,3,4,4,4,4,4,4,4,4,4
"412",3789,70.7368421052632,4185,33.8105263157895,53.1894736842105,3570,335.757894736842,3819,4232,-131.936842105263,-260.652631578947,4027,3706,294.842105263158,55,0,1559,1771,0,4,4,4,4,4,4,3,4,4,4,4,4,4,4,4,4
"413",3787,67.6631578947368,4185,28.6842105263158,49.6,3564,334.726315789474,3816,4232,-136.042105263158,-260.652631578947,4022,3704,287.663157894737,56,0,1559,1767,0,4,4,4,4,4,4,3,4,4,4,4,4,4,4,4,4
"414",3789,64.0736842105263,4186,30.2210526315789,49.0842105263158,3558,334.221052631579,3817,4233,-138.6,-261.168421052632,4018,3704,283.042105263158,57,0,1555,1771,0,4,4,4,4,4,4,3,4,4,4,4,4,4,4,4,4
"415",3788,59.9684210526316,4186,27.1473684210526,50.1157894736842,3552,335.757894736842,3811,4233,-144.757894736842,-261.168421052632,4012,3702,278.431578947368,58,0,1559,1771,0,4,4,4,4,4,4,3,4,4,4,4,4,4,4,4,4
"416",3785,56.3789473684211,4182,16.8947368421053,47.5473684210526,3548,334.726315789474,3804,4231,-147.831578947368,-260.652631578947,4006,3700,275.347368421053,59,0,1559,1771,0,4,4,4,4,4,4,3,4,4,4,4,4,4,4,4,4
"417",3784,58.9368421052632,4181,20.9894736842105,43.4526315789474,3553,333.18947368421,3808,4232,-143.221052631579,-261.684210526316,4010,3701,277.915789473684,60,0,1559,1771,0,4,4,4,4,4,4,3,4,4,4,4,4,4,4,4,4
"418",3784,62.5368421052632,4183,30.7368421052632,44.9894736842105,3558,333.705263157895,3813,4230,-142.705263157895,-263.221052631579,4015,3698,280.989473684211,61,0,1555,1775,0,4,4,4,4,4,4,3,4,4,4,4,4,4,4,4,4
"419",3784,62.0210526315789,4182,30.2210526315789,48.0631578947368,3558,332.684210526316,3814,4225,-140.136842105263,-263.221052631579,4018,3697,285.094736842105,62,0,1563,1771,0,4,4,4,4,4,4,3,4,4,4,4,4,4,4,4,4
"420",3784,63.5578947368421,4180,27.6631578947368,48.0631578947368,3558,332.684210526316,3810,4229,-140.136842105263,-263.726315789474,4018,3699,283.042105263158,63,0,1555,1775,0,4,4,4,4,4,4,3,4,4,4,4,4,4,4,4,4
"421",3786,60.9894736842105,4181,29.7157894736842,50.1157894736842,3557,336.273684210526,3805,4234,-145.778947368421,-261.684210526316,4018,3699,274.842105263158,64,0,1559,1775,353,4,4,4,4,4,4,3,4,4,4,4,4,4,4,4,4
"422",3781,48.1684210526316,4181,24.0736842105263,47.0421052631579,3548,337.810526315789,3802,4229,-151.936842105263,-263.221052631579,4010,3698,267.663157894737,65,0,1559,1771,505,4,4,4,4,4,4,3,4,4,4,4,4,4,4,4,4
"423",3773,50.2210526315789,4177,23.0421052631579,44.9894736842105,3550,335.757894736842,3805,4227,-148.347368421053,-269.884210526316,4007,3698,272.273684210526,66,0,1559,1775,541,4,4,4,4,4,4,3,4,4,4,4,4,4,4,4,4
"424",3771,56.8947368421053,4179,26.1263157894737,43.9578947368421,3556,334.726315789474,3803,4230,-148.347368421053,-273.989473684211,4011,3697,275.347368421053,67,0,1559,1775,557,4,4,4,4,4,4,3,4,4,4,4,4,4,4,4,4
"425",3775,54.3263157894737,4177,26.1263157894737,43.9578947368421,3556,334.726315789474,3804,4225,-148.347368421053,-271.936842105263,4016,3694,273.810526315789,68,0,1563,1775,503,4,4,4,4,4,4,3,4,4,4,4,4,4,4,4,4
"426",3776,58.9368421052632,4175,29.7157894736842,45.4947368421053,3557,334.726315789474,3810,4224,-143.221052631579,-271.936842105263,4019,3693,278.431578947368,69,0,1559,1771,473,4,4,4,4,4,4,3,4,4,4,4,4,4,4,4,4
"427",3775,67.1473684210526,4173,32.2736842105263,46.5263157894737,3559,333.18947368421,3808,4222,-143.726315789474,-274.505263157895,4018,3693,279.968421052632,70,0,1559,1775,437,4,4,4,4,4,4,3,4,4,4,4,4,4,4,4,4
"428",3774,56.3789473684211,4175,26.1263157894737,41.9052631578947,3549,332.168421052632,3797,4216,-151.421052631579,-275.526315789474,4010,3689,269.2,71,0,1563,1771,587,4,4,4,4,4,4,3,4,4,4,4,4,4,4,4,4
"429",3775,48.6842105263158,4175,23.5578947368421,44.4736842105263,3543,335.242105263158,3797,4222,-151.936842105263,-274.505263157895,4007,3692,264.578947368421,72,0,1551,1771,635,4,4,4,4,4,4,3,4,4,4,4,4,4,4,4,4
"430",3781,61.5052631578947,4175,32.2736842105263,54.2210526315789,3553,337.294736842105,3809,4228,-142.705263157895,-270.915789473684,4020,3699,275.863157894737,73,0,1555,1771,627,4,4,4,4,4,4,3,4,4,4,4,4,4,4,4,4
"431",3786,64.0736842105263,4178,32.2736842105263,51.6526315789474,3551,336.273684210526,3808,4222,-143.221052631579,-271.421052631579,4024,3696,277.4,74,0,1559,1771,594,4,4,4,4,4,4,3,4,4,4,4,4,4,4,4,4
"432",3786,59.4526315789474,4176,26.6315789473684,43.9578947368421,3546,335.757894736842,3804,4216,-147.315789473684,-275.526315789474,4017,3690,271.252631578947,75,0,1559,1775,560,4,4,4,4,4,4,3,4,4,4,4,4,4,4,4,4
"433",3776,56.8947368421053,4176,27.6631578947368,43.9578947368421,3547,334.726315789474,3803,4219,-147.315789473684,-275.010526315789,4014,3690,268.684210526316,76,0,1559,1771,573,4,4,4,4,4,4,3,4,4,4,4,4,4,4,4,4
"434",3772,56.3789473684211,4173,29.2,45.4947368421053,3544,334.726315789474,3802,4218,-147.315789473684,-275.010526315789,4013,3692,270.221052631579,77,0,1559,1775,585,4,4,4,4,4,4,3,4,4,4,4,4,4,4,4,4
"435",3778,55.3473684210526,4175,27.1473684210526,43.4526315789474,3540,336.778947368421,3801,4217,-145.778947368421,-275.010526315789,4013,3691,269.715789473684,78,0,1559,1767,594,4,4,4,4,4,4,3,4,4,4,4,4,4,4,4,4
"436",3783,63.0421052631579,4174,33.3052631578947,46.5263157894737,3552,338.831578947368,3810,4219,-137.578947368421,-273.473684210526,4023,3692,276.378947368421,79,0,1555,1775,560,4,4,4,4,4,4,3,4,4,4,4,4,4,4,4,4
"437",3783,70.7368421052632,4176,43.5578947368421,48.5789473684211,3561,338.831578947368,3821,4220,-130.4,-271.936842105263,4035,3695,287.663157894737,80,0,1563,1771,573,4,4,4,4,4,4,3,4,4,4,4,4,4,4,4,4
"438",3787,75.8631578947368,4177,48.1684210526316,46.0105263157895,3557,338.831578947368,3819,4218,-127.831578947368,-273.989473684211,4037,3696,294.326315789474,81,0,1559,1771,585,4,4,4,4,4,4,3,4,4,4,4,4,4,4,4,4
"439",3791,78.9368421052632,4173,53.8105263157895,44.9894736842105,3557,338.315789473684,3819,4216,-122.189473684211,-276.547368421053,4039,3692,296.894736842105,82,0,1559,1771,594,4,4,4,4,4,4,3,4,4,4,4,4,4,4,4,4
"440",3787,70.7368421052632,4170,53.3052631578947,43.9578947368421,3551,336.273684210526,3819,4216,-125.273684210526,-277.063157894737,4040,3688,291.757894736842,83,0,1559,1771,560,4,4,4,4,4,4,3,4,4,4,4,4,4,4,4,4
"441",3785,62.5368421052632,4170,44.5789473684211,47.0421052631579,3542,335.757894736842,3815,4217,-133.473684210526,-275.526315789474,4035,3690,288.168421052632,84,0,1559,1775,573,4,4,4,4,4,4,3,4,4,4,4,4,4,4,4,4
"442",3785,60.4842105263158,4172,40.4842105263158,48.5789473684211,3536,337.294736842105,3805,4217,-138.6,-275.526315789474,4023,3693,282.536842105263,85,0,1559,1771,585,4,4,4,4,4,4,3,4,4,4,4,4,4,4,4,4
"443",3784,58.9368421052632,4168,43.5578947368421,45.4947368421053,3535,335.242105263158,3802,4215,-138.094736842105,-278.6,4022,3691,279.452631578947,86,0,1559,1775,594,4,4,4,4,4,4,3,4,4,4,4,4,4,4,4,4
"444",3782,55.3473684210526,4172,42.5368421052632,42.9368421052632,3536,332.168421052632,3808,4215,-133.473684210526,-278.094736842105,4032,3690,287.147368421053,87,0,1559,1771,560,4,4,4,4,4,4,3,4,4,4,4,4,4,4,4,4
"445",3790,68.1684210526316,4174,51.2526315789474,51.6526315789474,3555,339.863157894737,3824,4216,-117.063157894737,-273.989473684211,4047,3695,305.610526315789,88,0,1559,1771,573,4,4,4,4,4,4,3,4,4,4,4,4,4,4,4,4
"446",3801,86.6315789473684,4177,71.2526315789474,62.9368421052632,3574,-339.736842105263,3842,4218,-99.6315789473684,-271.936842105263,4065,3701,325.094736842105,89,0,1559,1775,585,4,4,4,4,4,4,3,4,4,4,4,4,4,4,4,4
"447",3803,95.3473684210526,4175,80.4842105263158,63.4526315789474,3579,-340.768421052632,3850,4219,-92.4526315789474,-271.936842105263,4077,3698,336.378947368421,90,0,1563,1771,594,4,4,4,4,4,4,3,4,4,4,4,4,4,4,4,4
"448",3801,97.9157894736842,4173,80.4842105263158,58.3157894736842,3584,-344.357894736842,3851,4218,-84.7578947368421,-273.989473684211,4079,3697,338.431578947368,91,0,1555,1775,560,4,4,4,4,4,4,3,4,4,4,4,4,4,4,4,4
"449",3806,95.3473684210526,4173,79.4526315789474,63.4526315789474,3586,-341.273684210526,3853,4217,-81.6842105263158,-274.505263157895,4075,3699,333.810526315789,92,0,1559,1771,573,4,4,4,4,4,4,3,4,4,4,4,4,4,4,4,4
"450",3814,99.9684210526316,4175,86.1263157894737,75.7578947368421,3590,-337.168421052632,3862,4224,-80.6526315789474,-268.863157894737,4084,3701,341.505263157895,93,0,1559,1771,585,4,4,4,4,4,4,3,4,4,4,4,4,4,4,4,4
"451",3814,107.147368421053,4181,89.7157894736842,76.7789473684211,3591,-336.663157894737,3862,4231,-80.1368421052632,-259.115789473684,4090,3706,-339.115789473684,94,0,1559,1775,594,4,4,4,4,4,4,3,4,4,4,4,4,4,4,4,4
"452",3816,108.684210526316,4181,92.7894736842105,80.3684210526316,3592,-333.578947368421,3861,4226,-75.0105263157895,-260.652631578947,4089,3708,-339.631578947368,95,0,1559,1771,560,4,4,4,4,4,4,3,4,4,4,4,4,4,4,4,4
"453",3834,119.452631578947,4178,107.663157894737,100.368421052632,3610,-326.915789473684,3879,4217,-57.5789473684211,-271.936842105263,4107,3693,-324.757894736842,96,0,1563,1771,573,4,4,4,4,4,4,3,4,4,4,4,4,4,4,4,4
"454",3856,149.715789473684,4172,135.347368421053,123.957894736842,3645,-321.789473684211,3910,4210,-26.8105263157895,-278.6,4140,3674,-288.863157894737,97,0,1559,1767,585,4,4,4,4,4,4,3,4,4,4,4,4,4,4,4,4
"455",3865,160.484210526316,4170,145.094736842105,127.042105263158,3651,-323.326315789474,3914,4204,-14.5052631578947,-279.115789473684,4147,3669,-279.115789473684,98,0,1555,1775,594,4,4,4,4,4,4,3,4,4,4,4,4,4,4,4,4
"456",3862,154.326315789474,4168,135.863157894737,121.905263157895,3636,-326.4,3902,4200,-27.3157894736842,-279.631578947368,4134,3672,-293.473684210526,99,0,1563,1767,560,4,4,4,4,4,4,3,4,4,4,4,4,4,4,4,4
"457",3863,163.557894736842,4171,144.073684210526,123.452631578947,3643,-324.357894736842,3912,4205,-22.7052631578947,-279.115789473684,4147,3674,-281.168421052632,100,0,1555,1771,573,4,4,4,4,4,4,3,4,4,4,4,4,4,4,4,4
"458",3874,180.989473684211,4171,164.578947368421,133.189473684211,3664,-320.252631578947,3932,4213,2.93684210526316,-276.547368421053,4173,3678,-255.526315789474,101,0,1559,1771,585,4,4,4,4,4,4,3,4,4,4,4,4,4,4,4,4
"459",3883,185.094736842105,4172,174.842105263158,142.421052631579,3672,-319.221052631579,3940,4217,16.2736842105263,-274.505263157895,4178,3681,-247.831578947368,102,0,1559,1771,594,4,4,4,4,4,4,3,4,4,4,4,4,4,4,4,4
"460",3881,184.073684210526,4178,173.305263157895,142.421052631579,3671,-319.736842105263,3941,4211,13.1894736842105,-275.010526315789,4173,3683,-246.810526315789,103,0,1563,1771,560,4,4,4,4,4,4,3,4,4,4,4,4,4,4,4,4
"461",3881,186.126315789474,4174,172.789473684211,140.884210526316,3675,-321.273684210526,3944,4209,15.7578947368421,-276.042105263158,4178,3679,-242.189473684211,104,0,1559,1771,573,4,4,4,4,4,4,3,4,4,4,4,4,4,4,4,4
"462",3881,177.4,4168,169.715789473684,135.242105263158,3672,-321.789473684211,3938,4213,11.1368421052632,-278.094736842105,4176,3673,-251.421052631579,105,0,1563,1767,585,4,4,4,4,4,4,3,4,4,4,4,4,4,4,4,4
"463",3881,171.252631578947,4168,167.663157894737,133.189473684211,3670,-321.273684210526,3935,4207,3.45263157894737,-278.6,4168,3675,-257.063157894737,106,0,1559,1767,594,4,4,4,4,4,4,3,4,4,4,4,4,4,4,4,4
"464",3879,174.842105263158,4170,170.736842105263,134.726315789474,3672,-322.305263157895,3937,4201,9.6,-278.094736842105,4169,3676,-251.936842105263,107,0,1559,1771,560,4,4,4,4,4,4,3,4,4,4,4,4,4,4,4,4
"465",3880,176.378947368421,4164,171.757894736842,138.831578947368,3673,-321.789473684211,3937,4203,15.7578947368421,-278.094736842105,4174,3670,-252.452631578947,108,0,1559,1767,573,4,4,4,4,4,4,3,4,4,4,4,4,4,4,4,4
"466",3882,171.252631578947,4164,170.221052631579,136.778947368421,3666,-319.221052631579,3936,4205,12.1684210526316,-278.094736842105,4172,3672,-260.652631578947,109,0,1559,1771,585,4,4,4,4,4,4,3,4,4,4,4,4,4,4,4,4
"467",3882,171.757894736842,4164,169.715789473684,132.684210526316,3668,-320.252631578947,3939,4203,10.1157894736842,-278.094736842105,4169,3678,-261.684210526316,110,0,1559,1771,594,4,4,4,4,4,4,3,4,4,4,4,4,4,4,4,4
"468",3879,178.431578947368,4161,171.252631578947,134.221052631579,3676,-322.810526315789,3940,4201,13.7052631578947,-278.094736842105,4170,3672,-253.473684210526,111,0,1555,1771,560,4,4,4,4,4,4,3,4,4,4,4,4,4,4,4,4
"469",3878,175.863157894737,4161,171.252631578947,138.831578947368,3671,-320.252631578947,3931,4199,13.1894736842105,-277.578947368421,4170,3669,-253.989473684211,112,0,1559,1771,573,4,4,4,4,4,4,3,4,4,4,4,4,4,4,4,4
"470",3885,169.715789473684,4163,170.221052631579,141.905263157895,3667,-320.252631578947,3931,4202,11.6526315789474,-276.042105263158,4168,3679,-259.631578947368,113,0,1559,1771,585,4,4,4,4,4,4,3,4,4,4,4,4,4,4,4,4
"471",3889,171.757894736842,4166,170.736842105263,139.347368421053,3672,-319.736842105263,3939,4205,11.1368421052632,-275.010526315789,4168,3683,-260.136842105263,114,0,1559,1771,594,4,4,4,4,4,4,3,4,4,4,4,4,4,4,4,4
"472",3888,185.610526315789,4164,179.968421052632,145.494736842105,3682,-311.536842105263,3944,4204,18.3157894736842,-275.526315789474,4176,3680,-248.863157894737,115,0,1555,1767,560,4,4,4,4,4,4,3,4,4,4,4,4,4,4,4,4
"473",3884,190.736842105263,4166,187.147368421053,146.010526315789,3684,-306.4,3942,4203,25.4947368421053,-275.526315789474,4184,3683,-241.168421052632,116,0,1559,1771,573,4,4,4,4,4,4,3,4,4,4,4,4,4,4,4,4
"474",3885,186.631578947368,4168,189.2,142.936842105263,3686,-308.968421052632,3947,4204,24.9894736842105,-273.989473684211,4185,3685,-243.221052631579,117,0,1559,1767,585,4,4,4,4,4,4,3,4,4,4,4,4,4,4,4,4
"475",3885,186.126315789474,4171,191.252631578947,143.957894736842,3690,-309.989473684211,3958,4205,27.0421052631579,-273.989473684211,4186,3685,-237.063157894737,118,0,1555,1771,594,4,4,4,4,4,4,3,4,4,4,4,4,4,4,4,4
"476",3882,189.715789473684,4165,193.305263157895,144.473684210526,3694,-308.452631578947,3959,4204,32.6842105263158,-275.010526315789,4189,3684,-228.863157894737,119,0,1559,1771,560,4,4,4,4,4,4,3,4,4,4,4,4,4,4,4,4
"477",3879,193.305263157895,4163,194.842105263158,141.905263157895,3696,-309.484210526316,3956,4203,32.6842105263158,-274.505263157895,4189,3684,-228.347368421053,120,0,1555,1771,573,4,4,4,4,4,4,3,4,4,4,4,4,4,4,4,4
"478",3882,197.915789473684,4165,193.810526315789,141.4,3697,-308.968421052632,3958,4204,31.6526315789474,-273.989473684211,4189,3684,-231.936842105263,121,0,1559,1771,585,4,4,4,4,4,4,3,4,4,4,4,4,4,4,4,4
"479",3884,200.989473684211,4166,192.789473684211,143.452631578947,3697,-308.452631578947,3960,4205,35.2421052631579,-273.989473684211,4192,3685,-229.368421052632,122,0,1559,1771,594,4,4,4,4,4,4,3,4,4,4,4,4,4,4,4,4
"480",3881,195.863157894737,4165,189.715789473684,141.905263157895,3691,-308.968421052632,3950,4203,30.6315789473684,-270.4,4186,3685,-232.452631578947,123,0,1559,1771,560,4,4,4,4,4,4,3,4,4,4,4,4,4,4,4,4
"481",3888,195.863157894737,4164,195.347368421053,144.989473684211,3690,-308.452631578947,3949,4204,31.1368421052632,-262.18947368421,4188,3684,-233.989473684211,124,0,1559,1767,573,4,4,4,4,4,4,3,4,4,4,4,4,4,4,4,4
"482",3891,200.484210526316,4167,199.452631578947,146.010526315789,3692,-307.947368421053,3958,4209,39.3473684210526,-259.115789473684,4196,3685,-228.863157894737,125,0,1559,1767,585,4,4,4,4,4,4,3,4,4,4,4,4,4,4,4,4
"483",3883,202.536842105263,4165,196.378947368421,142.936842105263,3694,-307.947368421053,3959,4207,39.3473684210526,-265.273684210526,4195,3685,-227.315789473684,126,0,1555,1771,594,4,4,4,4,4,4,3,4,4,4,4,4,4,4,4,4
"484",3877,196.378947368421,4164,194.326315789474,137.810526315789,3695,-311.021052631579,3954,4203,32.6842105263158,-267.315789473684,4186,3681,-230.915789473684,127,0,1559,1767,560,4,4,4,4,4,4,3,4,4,4,4,4,4,4,4,4
"485",3882,191.252631578947,4161,193.305263157895,138.831578947368,3696,-309.484210526316,3956,4204,32.1684210526316,-263.221052631579,4187,3682,-230.915789473684,128,0,1559,1771,573,4,4,4,4,4,4,4,4,4,4,4,4,4,4,4,4
"486",3882,188.168421052632,4163,188.684210526316,138.831578947368,3692,-309.484210526316,3954,4204,32.1684210526316,-260.136842105263,4186,3684,-232.957894736842,0,0,1559,1767,353,4,4,4,4,4,4,3,4,4,4,4,4,4,4,4,4
"487",3878,186.631578947368,4164,185.610526315789,130.115789473684,3687,-315.631578947368,3947,4201,28.5789473684211,-264.242105263158,4178,3681,-242.189473684211,1,0,1555,1771,505,4,4,4,4,4,4,3,4,4,4,4,4,4,4,4,4
"488",3875,188.684210526316,4163,188.684210526316,123.452631578947,3688,-322.305263157895,3943,4201,28.0631578947368,-272.957894736842,4176,3676,-244.757894736842,2,0,1563,1771,541,4,4,4,4,4,4,3,4,4,4,4,4,4,4,4,4
"489",3870,186.126315789474,4159,178.936842105263,122.421052631579,3685,-322.305263157895,3938,4201,20.8842105263158,-276.042105263158,4172,3675,-244.242105263158,3,0,1559,1767,557,4,4,4,4,4,4,3,4,4,4,4,4,4,4,4,4
"490",3873,184.073684210526,4155,171.757894736842,122.421052631579,3681,-320.768421052632,3935,4198,15.7578947368421,-273.473684210526,4166,3674,-247.831578947368,4,0,1559,1771,503,4,4,4,4,4,4,3,4,4,4,4,4,4,4,4,4
"491",3872,185.094736842105,4162,176.378947368421,123.957894736842,3677,-321.273684210526,3934,4199,17.8105263157895,-272.957894736842,4166,3676,-248.347368421053,5,0,1559,1767,473,4,4,4,4,4,4,3,4,4,4,4,4,4,4,4,4
"492",3865,184.073684210526,4161,175.863157894737,122.936842105263,3678,-323.842105263158,3934,4199,17.2947368421053,-275.526315789474,4171,3679,-244.757894736842,6,0,1559,1771,437,4,4,4,4,4,4,3,4,4,4,4,4,4,4,4,4
"493",3863,174.842105263158,4154,171.252631578947,113.705263157895,3674,-326.915789473684,3931,4195,13.1894736842105,-273.473684210526,4165,3677,-251.936842105263,7,0,1555,1767,587,4,4,4,4,4,4,3,4,4,4,4,4,4,4,4,4
"494",3866,174.326315789474,4151,170.736842105263,113.189473684211,3672,-325.378947368421,3927,4192,11.6526315789474,-273.473684210526,4158,3672,-257.063157894737,8,0,1559,1771,635,4,4,4,4,4,4,3,4,4,4,4,4,4,4,4,4
"495",3865,183.557894736842,4154,171.252631578947,115.757894736842,3676,-324.863157894737,3929,4196,12.6842105263158,-276.547368421053,4162,3672,-251.421052631579,9,0,1563,1767,627,4,4,4,4,4,4,3,4,4,4,4,4,4,4,4,4
"496",3869,189.2,4153,177.915789473684,116.273684210526,3685,-328.452631578947,3937,4196,20.3684210526316,-276.042105263158,4170,3671,-242.705263157895,10,0,1555,1771,594,4,4,4,4,4,4,3,4,4,4,4,4,4,4,4,4
"497",3873,191.252631578947,4153,188.168421052632,120.884210526316,3692,-327.431578947368,3944,4193,30.1157894736842,-275.010526315789,4175,3671,-236.547368421053,11,0,1559,1767,560,4,4,4,4,4,4,3,4,4,4,4,4,4,4,4,4
"498",3869,189.715789473684,4153,183.557894736842,124.989473684211,3689,-322.810526315789,3943,4196,29.6,-275.010526315789,4173,3674,-237.578947368421,12,0,1559,1767,573,4,4,4,4,4,4,3,4,4,4,4,4,4,4,4,4
"499",3865,187.147368421053,4151,175.347368421053,124.473684210526,3683,-321.789473684211,3938,4200,24.4736842105263,-276.042105263158,4170,3676,-241.168421052632,13,0,1559,1771,585,4,4,4,4,4,4,3,4,4,4,4,4,4,4,4,4
"500",3871,187.147368421053,4151,176.894736842105,124.473684210526,3683,-323.326315789474,3935,4199,22.4210526315789,-275.526315789474,4168,3676,-241.168421052632,14,0,1559,1767,594,4,4,4,4,4,4,3,4,4,4,4,4,4,4,4,4
"501",3877,187.663157894737,4150,179.452631578947,127.042105263158,3687,-322.810526315789,3934,4197,23.4526315789474,-275.526315789474,4169,3676,-240.652631578947,15,0,1559,1767,560,4,4,4,4,4,4,3,4,4,4,4,4,4,4,4,4
"502",3870,185.094736842105,4151,175.347368421053,123.957894736842,3685,-324.863157894737,3931,4198,19.3473684210526,-275.526315789474,4167,3676,-244.757894736842,16,0,1555,1771,0,4,4,4,4,4,4,3,4,4,4,4,4,4,4,4,4
"503",3870,187.663157894737,4153,174.326315789474,123.452631578947,3686,-324.863157894737,3933,4195,19.3473684210526,-275.010526315789,4168,3676,-239.115789473684,17,0,1559,1771,0,4,4,4,4,4,4,3,4,4,4,4,4,4,4,4,4
"504",3875,187.147368421053,4154,175.347368421053,122.936842105263,3685,-324.357894736842,3938,4190,24.9894736842105,-276.042105263158,4168,3676,-234.505263157895,18,0,1559,1767,0,4,4,4,4,4,4,3,4,4,4,4,4,4,4,4,4
"505",3877,189.715789473684,4152,180.484210526316,122.936842105263,3690,-324.357894736842,3943,4187,30.1157894736842,-276.042105263158,4172,3676,-236.042105263158,19,0,1555,1771,0,4,4,4,4,4,4,3,4,4,4,4,4,4,4,4,4
"506",3876,192.789473684211,4153,188.684210526316,124.989473684211,3702,-324.357894736842,3945,4190,31.6526315789474,-273.989473684211,4179,3677,-229.884210526316,20,0,1559,1771,0,4,4,4,4,4,4,3,4,4,4,4,4,4,4,4,4
"507",3877,193.810526315789,4152,189.715789473684,127.042105263158,3704,-324.863157894737,3947,4189,33.1894736842105,-273.989473684211,4182,3678,-224.757894736842,21,0,1555,1771,0,4,4,4,4,4,4,3,4,4,4,4,4,4,4,4,4
"508",3877,194.326315789474,4150,187.147368421053,124.473684210526,3698,-324.357894736842,3948,4186,34.2210526315789,-276.042105263158,4179,3679,-227.315789473684,22,0,1555,1775,0,4,4,4,4,4,4,3,4,4,4,4,4,4,4,4,4
"509",3877,193.305263157895,4152,187.147368421053,126.526315789474,3697,-323.326315789474,3946,4190,32.1684210526316,-273.989473684211,4175,3682,-227.831578947368,23,0,1559,1775,0,4,4,4,4,4,4,3,4,4,4,4,4,4,4,4,4
"510",3882,192.789473684211,4153,193.305263157895,135.757894736842,3701,-321.789473684211,3950,4194,38.3157894736842,-271.421052631579,4177,3684,-221.684210526316,24,0,1559,1771,0,4,4,4,4,4,4,3,4,4,4,4,4,4,4,4,4
"511",3881,194.326315789474,4154,191.757894736842,135.242105263158,3697,-321.273684210526,3950,4190,36.7789473684211,-272.957894736842,4181,3684,-224.757894736842,25,0,1555,1771,0,4,4,4,4,4,4,3,4,4,4,4,4,4,4,4,4
"512",3879,196.378947368421,4153,191.252631578947,131.652631578947,3699,-323.326315789474,3950,4186,35.7578947368421,-275.010526315789,4181,3684,-222.189473684211,26,0,1555,1775,0,4,4,4,4,4,4,3,4,4,4,4,4,4,4,4,4
"513",3880,193.810526315789,4153,198.431578947368,134.221052631579,3703,-324.863157894737,3956,4186,41.4,-273.989473684211,4180,3684,-215.526315789474,27,0,1559,1767,0,4,4,4,4,4,4,3,4,4,4,4,4,4,4,4,4
"514",3882,195.863157894737,4152,202.021052631579,132.684210526316,3701,-323.842105263158,3958,4186,40.3684210526316,-275.010526315789,4183,3684,-217.063157894737,28,0,1555,1771,0,4,4,4,4,4,4,3,4,4,4,4,4,4,4,4,4
"515",3878,194.326315789474,4154,194.326315789474,124.473684210526,3694,-325.378947368421,3949,4183,31.6526315789474,-277.578947368421,4176,3680,-226.294736842105,29,0,1559,1775,0,4,4,4,4,4,4,3,4,4,4,4,4,4,4,4,4
"516",3876,193.810526315789,4151,191.757894736842,127.547368421053,3694,-326.915789473684,3945,4182,31.6526315789474,-278.094736842105,4172,3678,-225.778947368421,30,0,1559,1771,0,4,4,4,4,4,4,3,4,4,4,4,4,4,4,4,4
"517",3884,199.968421052632,4148,199.968421052632,130.631578947368,3702,-325.378947368421,3953,4185,35.2421052631579,-275.526315789474,4182,3682,-219.115789473684,31,0,1555,1771,0,4,4,4,4,4,4,3,4,4,4,4,4,4,4,4,4
"518",3891,202.021052631579,4150,200.989473684211,129.084210526316,3702,-322.810526315789,3956,4185,30.6315789473684,-274.505263157895,4181,3684,-221.168421052632,32,0,1555,1771,0,4,4,4,4,4,4,3,4,4,4,4,4,4,4,4,4
"519",3894,202.021052631579,4153,200.484210526316,135.757894736842,3698,-322.305263157895,3957,4185,34.7263157894737,-273.989473684211,4181,3685,-218.094736842105,33,0,1559,1771,0,4,4,4,4,4,4,3,4,4,4,4,4,4,4,4,4
"520",3893,200.484210526316,4154,200.484210526316,140.368421052632,3698,-321.789473684211,3955,4185,37.8105263157895,-272.957894736842,4183,3685,-213.473684210526,34,0,1555,1771,0,4,4,4,4,4,4,3,4,4,4,4,4,4,4,4,4
"521",3894,199.452631578947,4151,200.484210526316,137.810526315789,3699,-321.789473684211,3955,4185,31.6526315789474,-273.989473684211,4181,3683,-214.505263157895,35,0,1555,1771,0,4,4,4,4,4,4,3,4,4,4,4,4,4,4,4,4
"522",3893,197.915789473684,4154,200.484210526316,134.221052631579,3699,-321.273684210526,3955,4186,28.0631578947368,-275.526315789474,4180,3687,-216.547368421053,36,0,1559,1771,0,4,4,4,4,4,4,3,4,4,4,4,4,4,4,4,4
"523",3892,202.021052631579,4155,204.073684210526,136.778947368421,3704,-320.252631578947,3960,4186,36.7789473684211,-274.505263157895,4186,3693,-212.452631578947,37,0,1555,1771,0,4,4,4,4,4,4,3,4,4,4,4,4,4,4,4,4
"524",3891,203.557894736842,4154,204.073684210526,132.684210526316,3704,-321.273684210526,3961,4186,39.8631578947368,-273.473684210526,4187,3692,-210.915789473684,38,0,1555,1775,0,4,4,4,4,4,4,3,4,4,4,4,4,4,4,4,4
"525",3892,200.989473684211,4152,202.021052631579,129.084210526316,3703,-322.810526315789,3958,4186,34.7263157894737,-273.989473684211,4184,3690,-211.936842105263,39,0,1559,1771,0,4,4,4,4,4,4,3,4,4,4,4,4,4,4,4,4
"526",3894,200.484210526316,4154,203.042105263158,127.547368421053,3704,-322.305263157895,3957,4186,33.7052631578947,-273.989473684211,4184,3692,-211.421052631579,40,0,1551,1771,0,4,4,4,4,4,4,3,4,4,4,4,4,4,4,4,4
"527",3895,204.578947368421,4154,200.989473684211,129.084210526316,3703,-319.736842105263,3958,4185,33.1894736842105,-273.989473684211,4183,3692,-212.452631578947,41,0,1559,1771,0,4,4,4,4,4,4,3,4,4,4,4,4,4,4,4,4
"528",3896,204.578947368421,4153,204.073684210526,129.6,3703,-320.252631578947,3958,4186,36.7789473684211,-273.989473684211,4184,3691,-205.273684210526,42,0,1559,1771,0,4,4,4,4,4,4,3,4,4,4,4,4,4,4,4,4
"529",3895,203.557894736842,4153,210.221052631579,130.631578947368,3708,-319.736842105263,3958,4185,43.9578947368421,-273.989473684211,4186,3692,-198.094736842105,43,0,1555,1771,0,4,4,4,4,4,4,3,4,4,4,4,4,4,4,4,4
"530",3895,207.663157894737,4152,213.810526315789,134.221052631579,3712,-315.126315789474,3965,4184,47.5473684210526,-273.989473684211,4191,3693,-197.063157894737,44,0,1555,1771,0,4,4,4,4,4,4,3,4,4,4,4,4,4,4,4,4
"531",3897,207.663157894737,4153,213.810526315789,131.652631578947,3709,-311.021052631579,3965,4184,44.9894736842105,-273.989473684211,4189,3694,-197.578947368421,45,0,1559,1775,0,4,4,4,4,4,4,3,4,4,4,4,4,4,4,4,4
"532",3898,206.126315789474,4154,215.347368421053,131.652631578947,3710,-312.042105263158,3965,4185,47.5473684210526,-269.368421052632,4189,3697,-193.989473684211,46,0,1559,1771,0,4,4,4,4,4,4,3,4,4,4,4,4,4,4,4,4
"533",3895,212.789473684211,4155,216.894736842105,133.189473684211,3714,-313.578947368421,3970,4185,50.6315789473684,-263.221052631579,4196,3699,-193.473684210526,47,0,1555,1775,0,4,4,4,4,4,4,3,4,4,4,4,4,4,4,4,4
"534",3897,218.431578947368,4155,219.452631578947,135.757894736842,3717,-309.484210526316,3974,4184,50.6315789473684,-262.18947368421,4201,3698,-186.810526315789,48,0,1559,1775,0,4,4,4,4,4,4,3,4,4,4,4,4,4,4,4,4
"535",3898,208.684210526316,4155,217.915789473684,133.705263157895,3712,-308.968421052632,3968,4185,49.6,-263.221052631579,4195,3699,-183.726315789474,49,0,1555,1775,0,4,4,4,4,4,4,3,4,4,4,4,4,4,4,4,4
"536",3895,207.663157894737,4154,210.736842105263,134.726315789474,3712,-311.536842105263,3953,4186,47.0421052631579,-262.18947368421,4190,3700,-191.936842105263,50,0,1559,1775,0,4,4,4,4,4,4,3,4,4,4,4,4,4,4,4,4
"537",3899,213.810526315789,4156,209.2,138.831578947368,3716,-311.021052631579,3939,4184,47.5473684210526,-261.684210526316,4187,3700,-195.010526315789,51,0,1559,1771,0,4,4,4,4,4,4,3,4,4,4,4,4,4,4,4,4
"538",3909,210.221052631579,4155,206.126315789474,139.863157894737,3713,-306.915789473684,3930,4184,43.9578947368421,-261.684210526316,4184,3703,-192.452631578947,52,0,1559,1775,0,4,4,4,4,4,4,3,4,4,4,4,4,4,4,4,4
"539",3912,214.326315789474,4155,205.610526315789,143.957894736842,3714,-305.894736842105,3930,4187,44.4736842105263,-258.6,4185,3708,-191.936842105263,53,0,1555,1771,0,4,4,4,4,4,4,3,4,4,4,4,4,4,4,4,4
"540",3910,217.4,4162,206.126315789474,143.957894736842,3717,-307.947368421053,3926,4186,44.9894736842105,-258.094736842105,4182,3709,-192.452631578947,54,0,1559,1771,0,4,4,4,4,4,4,3,4,4,4,4,4,4,4,4,4
"541",3910,207.147368421053,4158,196.894736842105,141.4,3709,-308.452631578947,3911,4184,37.2947368421053,-260.136842105263,4173,3708,-196.042105263158,55,0,1559,1771,0,4,4,4,4,4,4,3,4,4,4,4,4,4,4,4,4
"542",3910,198.936842105263,4153,184.073684210526,135.242105263158,3695,-308.968421052632,3892,4185,28.0631578947368,-260.136842105263,4160,3708,-208.863157894737,56,0,1555,1775,0,4,4,4,4,4,4,3,4,4,4,4,4,4,4,4,4
"543",3909,204.073684210526,4153,185.094736842105,135.757894736842,3699,-307.947368421053,3895,4186,29.0842105263158,-258.6,4159,3710,-210.915789473684,57,0,1559,1767,0,4,4,4,4,4,4,3,4,4,4,4,4,4,4,4,4
"544",3907,202.536842105263,4155,188.168421052632,137.294736842105,3704,-308.968421052632,3904,4185,32.6842105263158,-259.115789473684,4168,3708,-206.810526315789,58,0,1555,1771,0,4,4,4,4,4,4,3,4,4,4,4,4,4,4,4,4
"545",3910,205.094736842105,4152,186.631578947368,139.347368421053,3702,-308.968421052632,3898,4185,32.1684210526316,-259.115789473684,4168,3708,-205.778947368421,59,0,1559,1775,0,4,4,4,4,4,4,3,4,4,4,4,4,4,4,4,4
"546",3916,215.863157894737,4154,191.757894736842,140.368421052632,3703,-307.947368421053,3895,4184,31.6526315789474,-257.578947368421,4168,3713,-201.168421052632,60,0,1555,1771,0,4,4,4,4,4,4,3,4,4,4,4,4,4,4,4,4
"547",3925,216.894736842105,4153,194.326315789474,142.936842105263,3708,-307.431578947368,3902,4183,36.2736842105263,-256.042105263158,4171,3715,-196.547368421053,61,0,1555,1775,0,4,4,4,4,4,4,3,4,4,4,4,4,4,4,4,4
"548",3926,217.4,4156,195.347368421053,147.042105263158,3710,-306.915789473684,3907,4184,42.4210526315789,-250.915789473684,4173,3713,-196.042105263158,62,0,1555,1775,0,4,4,4,4,4,4,3,4,4,4,4,4,4,4,4,4
"549",3924,220.484210526316,4162,197.915789473684,144.989473684211,3709,-307.431578947368,3907,4185,42.9368421052632,-245.778947368421,4172,3716,-196.547368421053,63,0,1563,1775,0,4,4,4,4,4,4,3,4,4,4,4,4,4,4,4,4
"550",3923,219.452631578947,4160,200.989473684211,143.957894736842,3713,-306.915789473684,3910,4186,42.9368421052632,-245.778947368421,4173,3721,-192.452631578947,64,0,1555,1767,353,4,4,4,4,4,4,3,4,4,4,4,4,4,4,4,4
"551",3919,217.4,4161,202.021052631579,145.494736842105,3713,-305.894736842105,3905,4186,43.4526315789474,-246.294736842105,4174,3722,-192.957894736842,65,0,1555,1775,505,4,4,4,4,4,4,3,4,4,4,4,4,4,4,4,4
"552",3919,222.021052631579,4161,195.863157894737,143.452631578947,3712,-306.4,3898,4186,40.3684210526316,-245.273684210526,4172,3717,-193.473684210526,66,0,1555,1771,541,4,4,4,4,4,4,3,4,4,4,4,4,4,4,4,4
"553",3923,218.936842105263,4159,185.094736842105,137.810526315789,3701,-308.452631578947,3890,4186,30.1157894736842,-245.273684210526,4162,3715,-201.684210526316,67,0,1555,1775,558,4,4,4,4,4,4,3,4,4,4,4,4,4,4,4,4
"554",3925,212.273684210526,4158,183.557894736842,141.905263157895,3694,-307.431578947368,3886,4186,27.0421052631579,-245.273684210526,4154,3719,-206.810526315789,68,0,1559,1775,503,4,4,4,4,4,4,3,4,4,4,4,4,4,4,4,4
"555",3925,214.326315789474,4160,188.684210526316,145.494736842105,3703,-306.4,3891,4186,33.1894736842105,-244.757894736842,4162,3723,-199.631578947368,69,0,1555,1775,473,4,4,4,4,4,4,3,4,4,4,4,4,4,4,4,4
"556",3926,219.968421052632,4155,189.2,142.421052631579,3709,-306.4,3897,4187,33.1894736842105,-244.242105263158,4165,3722,-193.989473684211,70,0,1559,1775,437,4,4,4,4,4,4,3,4,4,4,4,4,4,4,4,4
"557",3925,219.968421052632,4157,191.757894736842,140.368421052632,3706,-306.4,3897,4185,33.7052631578947,-244.757894736842,4163,3720,-196.042105263158,71,0,1555,1775,587,4,4,4,4,4,4,3,4,4,4,4,4,4,4,4,4
"558",3925,219.452631578947,4164,197.4,145.494736842105,3708,-304.863157894737,3901,4185,41.4,-244.242105263158,4168,3725,-194.505263157895,72,0,1555,1775,635,4,4,4,4,4,4,3,4,4,4,4,4,4,4,4,4
"559",3923,224.578947368421,4165,200.989473684211,149.6,3715,-304.863157894737,3909,4187,48.5789473684211,-238.6,4174,3730,-185.273684210526,73,0,1559,1775,627,4,4,4,4,4,4,3,4,4,4,4,4,4,4,4,4
"560",3915,224.073684210526,4162,201.505263157895,144.989473684211,3714,-302.810526315789,3909,4188,46.5263157894737,-234.505263157895,4171,3730,-184.242105263158,74,0,1555,1775,594,4,4,4,4,4,4,3,4,4,4,4,4,4,4,4,4
"561",3916,225.610526315789,4159,204.073684210526,147.042105263158,3716,-299.736842105263,3911,4186,47.5473684210526,-238.6,4172,3730,-181.684210526316,75,0,1555,1775,560,4,4,4,4,4,4,3,4,4,4,4,4,4,4,4,4
"562",3916,228.684210526316,4163,202.021052631579,147.547368421053,3716,-302.305263157895,3911,4186,48.5789473684211,-239.115789473684,4171,3730,-183.221052631579,76,0,1559,1771,573,4,4,4,4,4,4,3,4,4,4,4,4,4,4,4,4
"563",3916,230.736842105263,4161,195.863157894737,142.936842105263,3711,-304.357894736842,3909,4186,45.4947368421053,-232.957894736842,4168,3730,-189.884210526316,77,0,1551,1775,585,4,4,4,4,4,4,3,4,4,4,4,4,4,4,4,4
"564",3921,232.273684210526,4165,197.915789473684,143.452631578947,3710,-294.610526315789,3908,4186,47.0421052631579,-229.884210526316,4168,3733,-188.347368421053,78,0,1559,1775,594,4,4,4,4,4,4,3,4,4,4,4,4,4,4,4,4
"565",3920,235.347368421053,4164,205.094736842105,149.084210526316,3714,-289.989473684211,3909,4187,49.0842105263158,-229.884210526316,4172,3738,-180.136842105263,79,0,1559,1771,560,4,4,4,4,4,4,3,4,4,4,4,4,4,4,4,4
"566",3911,232.273684210526,4162,202.021052631579,145.494736842105,3711,-303.326315789474,3908,4186,47.5473684210526,-229.368421052632,4170,3738,-182.705263157895,80,0,1555,1771,573,4,4,4,4,4,4,3,4,4,4,4,4,4,4,4,4
"567",3912,227.663157894737,4164,190.736842105263,140.368421052632,3708,-304.357894736842,3905,4184,44.4736842105263,-229.884210526316,4163,3736,-193.473684210526,81,0,1555,1775,585,4,4,4,4,4,4,3,4,4,4,4,4,4,4,4,4
"568",3919,231.757894736842,4167,193.305263157895,142.936842105263,3709,-294.610526315789,3906,4185,46.0105263157895,-228.347368421053,4162,3737,-192.452631578947,82,0,1559,1771,594,4,4,4,4,4,4,3,4,4,4,4,4,4,4,4,4
"569",3921,234.326315789474,4166,196.894736842105,140.884210526316,3708,-296.147368421053,3908,4186,46.5263157894737,-227.315789473684,4163,3738,-189.368421052632,83,0,1555,1771,560,4,4,4,4,4,4,3,4,4,4,4,4,4,4,4,4
"570",3924,233.810526315789,4166,191.757894736842,144.473684210526,3705,-296.663157894737,3908,4185,45.4947368421053,-227.315789473684,4161,3738,-192.957894736842,84,0,1555,1779,573,4,4,4,4,4,4,3,4,4,4,4,4,4,4,4,4
