"","AF3","AF4","F3","F4","F7","F8","FC5","FC6","O1","O2","P7","P8","T7","T8","COUNTER","INTERPOLATED","GYROX","GYROY","RAW_CQ","CQ_CMS","CQ_F7","CQ_T7","CQ_O2","CQ_FC6","CQ_AF4","CQ_F3","CQ_P7","CQ_P8","CQ_F4","CQ_AF3","CQ_FC5","CQ_O1","CQ_T8","CQ_F8","CQ_DRL"
"1",4649,-149.368421052632,4342,228.063157894737,79.3473684210526,4058,146.421052631579,3989,4140,-225.273684210526,-180.652631578947,4584,3752,-27.3157894736842,5,0,1551,1759,441,4,4,4,4,4,4,4,4,4,4,4,4,4,4,4,4
"2",4644,-146.810526315789,4339,224.989473684211,76.2736842105263,4069,133.084210526316,4003,4141,-218.6,-183.221052631579,4592,3739,-8.86315789473684,6,0,1555,1759,465,4,4,4,4,4,4,4,4,4,4,4,4,4,4,4,4
"3",4638,-148.347368421053,4333,220.884210526316,74.2210526315789,4079,130.515789473684,4002,4136,-214.505263157895,-184.757894736842,4599,3731,-0.136842105263158,7,0,1555,1759,452,4,4,4,4,4,4,4,4,4,4,4,4,4,4,4,4
"4",4642,-148.347368421053,4335,215.757894736842,79.3473684210526,4074,132.052631578947,4004,4136,-213.473684210526,-182.189473684211,4602,3747,-11.4210526315789,8,0,1551,1763,423,4,4,4,4,4,4,4,4,4,4,4,4,4,4,4,4
"5",4641,-151.421052631579,4337,205.494736842105,82.9368421052632,4055,121.284210526316,4003,4136,-213.989473684211,-180.136842105263,4600,3761,-24.2421052631579,9,0,1559,1759,466,4,4,4,4,4,4,4,4,4,4,4,4,4,4,4,4
"6",4627,-162.705263157895,4330,194.221052631579,78.3157894736842,4035,108.463157894737,3993,4128,-210.915789473684,-183.221052631579,4594,3755,-29.8842105263158,10,0,1551,1763,499,4,4,4,4,4,4,4,4,4,4,4,4,4,4,4,4
"7",4617,-165.273684210526,4329,195.242105263158,72.1684210526316,4023,107.442105263158,3998,4120,-209.884210526316,-189.884210526316,4589,3744,-36.0421052631579,11,0,1555,1763,469,4,4,4,4,4,4,4,4,4,4,4,4,4,4,4,4
"8",4617,-156.042105263158,4333,199.863157894737,77.2947368421053,4014,104.368421052632,4009,4119,-212.957894736842,-196.042105263158,4577,3735,-50.9157894736842,12,0,1555,1763,423,4,4,4,4,4,4,4,4,4,4,4,4,4,4,4,4
"9",4615,-159.115789473684,4329,196.778947368421,81.4,3995,92.5684210526316,4010,4119,-207.831578947368,-196.547368421053,4553,3740,-70.9157894736842,13,0,1555,1763,483,4,4,4,4,4,4,4,4,4,4,4,4,4,4,4,4
"10",4610,-167.831578947368,4327,198.831578947368,69.6,3973,82.8315789473684,4016,4120,-191.936842105263,-189.368421052632,4530,3758,-76.0421052631579,14,0,1555,1763,499,4,4,4,4,4,4,4,4,4,4,4,4,4,4,4,4
"11",4606,-162.705263157895,4328,203.957894736842,57.8105263157895,3971,80.2631578947368,4022,4123,-179.631578947368,-187.315789473684,4523,3764,-70.9157894736842,15,0,1555,1763,469,4,4,4,4,4,4,4,4,4,4,4,4,4,4,4,4
"12",4602,-163.221052631579,4324,195.242105263158,59.3473684210526,3977,77.6947368421053,4010,4124,-176.042105263158,-193.989473684211,4523,3753,-81.1684210526316,16,0,1555,1759,0,4,4,4,4,4,4,4,4,4,4,4,4,4,4,4,4
"13",4598,-177.578947368421,4319,187.547368421053,60.8842105263158,3963,74.6210526315789,4003,4122,-169.368421052632,-196.547368421053,4521,3752,-91.4210526315789,17,0,1551,1763,0,4,4,4,4,4,4,4,4,4,4,4,4,4,4,4,4
"14",4596,-184.242105263158,4321,187.547368421053,54.2210526315789,3938,72.5684210526316,4011,4120,-158.094736842105,-195.010526315789,4514,3752,-97.0631578947368,18,0,1555,1759,0,4,4,4,4,4,4,4,4,4,4,4,4,4,4,4,4
"15",4596,-179.115789473684,4323,189.084210526316,41.9052631578947,3926,75.1368421052632,4015,4119,-163.726315789474,-196.547368421053,4504,3742,-107.831578947368,19,0,1551,1759,0,4,4,4,4,4,4,4,4,4,4,4,4,4,4,4,4
"16",4602,-169.884210526316,4328,197.294736842105,38.8315789473684,3927,80.7789473684211,4016,4123,-180.652631578947,-197.063157894737,4506,3752,-105.778947368421,20,0,1555,1759,0,4,4,4,4,4,4,4,4,4,4,4,4,4,4,4,4
"17",4602,-164.757894736842,4331,199.863157894737,55.2421052631579,3925,75.6421052631579,4026,4127,-180.652631578947,-193.473684210526,4510,3772,-93.4736842105263,21,0,1555,1763,0,4,4,4,4,4,4,4,4,4,4,4,4,4,4,4,4
"18",4594,-171.936842105263,4326,186.526315789474,71.1368421052632,3910,59.7473684210526,4034,4128,-170.915789473684,-193.989473684211,4506,3766,-93.4736842105263,22,0,1555,1759,0,4,4,4,4,4,4,4,4,4,4,4,4,4,4,4,4
"19",4583,-179.631578947368,4323,182.421052631579,66.0105263157895,3892,48.9789473684211,4040,4130,-166.810526315789,-197.063157894737,4506,3761,-96.5473684210526,23,0,1555,1759,0,4,4,4,4,4,4,4,4,4,4,4,4,4,4,4,4
"20",4575,-177.578947368421,4328,191.652631578947,54.2210526315789,3886,49.4947368421053,4046,4137,-161.168421052632,-194.505263157895,4511,3772,-90.9157894736842,24,0,1555,1759,0,4,4,4,4,4,4,4,4,4,4,4,4,4,4,4,4
"21",4570,-179.631578947368,4326,184.473684210526,48.0631578947368,3876,48.4631578947368,4037,4135,-161.168421052632,-193.989473684211,4499,3775,-99.1157894736842,25,0,1551,1759,0,4,4,4,4,4,4,4,4,4,4,4,4,4,4,4,4
"22",4567,-187.831578947368,4313,169.6,45.4947368421053,3864,37.6947368421053,4029,4129,-168.347368421053,-203.726315789474,4483,3765,-118.094736842105,26,0,1551,1759,0,4,4,4,4,4,4,4,4,4,4,4,4,4,4,4,4
"23",4568,-185.778947368421,4311,171.136842105263,46.0105263157895,3863,31.0315789473684,4036,4134,-161.168421052632,-213.473684210526,4485,3761,-117.063157894737,27,0,1551,1763,0,4,4,4,4,4,4,4,4,4,4,4,4,4,4,4,4
"24",4569,-180.652631578947,4316,170.631578947368,45.4947368421053,3868,32.0526315789474,4041,4136,-153.473684210526,-211.936842105263,4487,3764,-116.042105263158,28,0,1555,1763,0,4,4,4,4,4,4,4,4,4,4,4,4,4,4,4,4
"25",4564,-181.684210526316,4313,153.705263157895,36.7789473684211,3867,31.0315789473684,4034,4129,-164.242105263158,-209.884210526316,4475,3761,-136.042105263158,29,0,1551,1763,0,4,4,4,4,4,4,4,4,4,4,4,4,4,4,4,4
"26",4553,-185.273684210526,4309,141.4,24.9894736842105,3857,27.9578947368421,4043,4124,-165.273684210526,-212.957894736842,4468,3754,-135.010526315789,30,0,1555,1763,0,4,4,4,4,4,4,4,4,4,4,4,4,4,4,4,4
"27",4552,-191.936842105263,4310,142.936842105263,27.0421052631579,3839,23.3368421052632,4053,4126,-152.452631578947,-212.452631578947,4485,3758,-123.221052631579,31,0,1555,1763,0,4,4,4,4,4,4,4,4,4,4,4,4,4,4,4,4
"28",4552,-190.4,4311,145.494736842105,36.2736842105263,3828,12.0526315789474,4053,4132,-148.863157894737,-210.4,4526,3771,-143.726315789474,32,0,1555,1767,0,4,4,4,4,4,4,4,4,4,4,4,4,4,4,4,4
"29",4544,-183.726315789474,4310,147.042105263158,19.3473684210526,3826,1.8,4056,4134,-145.273684210526,-208.863157894737,4568,3774,-153.473684210526,33,0,1555,1763,0,4,4,4,4,4,4,4,4,4,4,4,4,4,4,4,4
"30",4535,-189.368421052632,4311,149.6,-0.652631578947368,3824,-0.768421052631579,4058,4128,-135.526315789474,-208.863157894737,4578,3771,-129.368421052632,34,0,1555,1763,0,4,4,4,4,4,4,4,4,4,4,4,4,4,4,4,4
"31",4528,-195.526315789474,4308,152.168421052632,7.54736842105263,3817,-2.81052631578947,4049,4120,-128.863157894737,-226.294736842105,4563,3769,-135.526315789474,35,0,1555,1763,0,4,4,4,4,4,4,4,4,4,4,4,4,4,4,4,4
"32",4523,-185.273684210526,4309,157.810526315789,20.8842105263158,3809,-1.27368421052632,4045,4116,-121.168421052632,-253.989473684211,4551,3770,-167.315789473684,36,0,1555,1767,0,4,4,4,4,4,4,4,4,4,4,4,4,4,4,4,4
"33",4526,-177.063157894737,4312,159.347368421053,14.2210526315789,3802,-1.27368421052632,4055,4112,-107.831578947368,-263.726315789474,4551,3772,-164.757894736842,37,0,1555,1759,0,4,4,4,4,4,4,4,4,4,4,4,4,4,4,4,4
"34",4525,-184.757894736842,4308,154.726315789474,3.95789473684211,3799,-8.96842105263158,4066,4107,-98.6,-261.684210526316,4553,3766,-146.294736842105,38,0,1555,1763,0,4,4,4,4,4,4,4,4,4,4,4,4,4,4,4,4
"35",4511,-189.368421052632,4302,153.189473684211,-3.72631578947368,3796,-15.6315789473684,4078,4106,-88.3473684210526,-269.884210526316,4551,3763,-148.863157894737,39,0,1559,1763,0,4,4,4,4,4,4,4,4,4,4,4,4,4,4,4,4
"36",4505,-187.315789473684,4305,155.757894736842,-15.0105263157895,3791,-14.0947368421053,4096,4103,-79.6315789473684,-276.547368421053,4551,3773,-153.473684210526,40,0,1555,1759,0,4,4,4,4,4,4,4,4,4,4,4,4,4,4,4,4
"37",4508,-190.4,4309,157.810526315789,-21.1684210526316,3788,-12.5578947368421,4107,4095,-73.9894736842105,-273.473684210526,4555,3772,-145.273684210526,41,0,1559,1763,0,4,4,4,4,4,4,4,4,4,4,4,4,4,4,4,4
"38",4507,-204.242105263158,4305,150.631578947368,-21.1684210526316,3775,-15.6315789473684,4100,4090,-67.8315789473684,-272.957894736842,4547,3765,-147.831578947368,42,0,1559,1759,0,4,4,4,4,4,4,4,4,4,4,4,4,4,4,4,4
"39",4505,-216.042105263158,4307,134.221052631579,-18.0947368421053,3758,-11.0210526315789,4093,4094,-63.7263157894737,-271.421052631579,4537,3774,-161.684210526316,43,0,1559,1759,0,4,4,4,4,4,4,4,4,4,4,4,4,4,4,4,4
"40",4512,-214.505263157895,4310,122.421052631579,-20.1368421052632,3748,-2.30526315789474,4099,4096,-60.1368421052632,-272.452631578947,4536,3771,-163.221052631579,44,0,1559,1759,0,4,4,4,4,4,4,4,4,4,4,4,4,4,4,4,4
"41",4522,-206.294736842105,4310,123.452631578947,-26.2947368421053,3733,1.28421052631579,4115,4090,-55.0105263157895,-276.042105263158,4531,3760,-158.6,45,0,1559,1759,0,4,4,4,4,4,4,4,4,4,4,4,4,4,4,4,4
"42",4526,-196.547368421053,4315,124.989473684211,-27.3157894736842,3707,-3.32631578947368,4135,4090,-55.0105263157895,-267.831578947368,4523,3775,-163.726315789474,46,0,1563,1751,0,4,4,4,4,4,4,4,4,4,4,4,4,4,4,4,4
"43",4522,-196.547368421053,4322,114.221052631579,-26.8105263157895,3689,-11.0210526315789,4143,4091,-60.6526315789474,-264.242105263158,4515,3779,-177.578947368421,47,0,1555,1759,0,4,4,4,4,4,4,4,4,4,4,4,4,4,4,4,4
"44",4514,-204.757894736842,4317,99.3473684210526,-30.9157894736842,3680,-16.6631578947368,4137,4091,-61.6842105263158,-275.010526315789,4503,3764,-193.989473684211,48,0,1563,1755,0,4,4,4,4,4,4,4,4,4,4,4,4,4,4,4,4
"45",4507,-217.578947368421,4307,89.0842105263158,-40.1368421052632,3673,-24.3578947368421,4136,4088,-60.6526315789474,-279.115789473684,4488,3759,-210.915789473684,49,0,1559,1755,0,4,4,4,4,4,4,4,4,4,4,4,4,4,4,4,4
"46",4496,-227.315789473684,4297,81.9052631578947,-46.8105263157895,3668,-32.0421052631579,4143,4083,-63.7263157894737,-276.042105263158,4479,3753,-218.094736842105,50,0,1559,1759,0,4,4,4,4,4,4,4,4,4,4,4,4,4,4,4,4
"47",4491,-230.4,4293,73.7052631578947,-48.8631578947368,3658,-34.6105263157895,4150,4083,-62.7052631578947,-277.063157894737,4474,3748,-213.989473684211,51,0,1559,1755,0,4,4,4,4,4,4,4,4,4,4,4,4,4,4,4,4
"48",4492,-228.863157894737,4300,67.5473684210526,-45.2736842105263,3642,-32.0421052631579,4164,4090,-56.5473684210526,-274.505263157895,4477,3770,-211.421052631579,52,0,1563,1759,0,4,4,4,4,4,4,4,4,4,4,4,4,4,4,4,4
"49",4492,-232.452631578947,4306,63.9578947368421,-44.2421052631579,3629,-34.6105263157895,4169,4094,-54.5052631578947,-269.884210526316,4474,3786,-219.631578947368,53,0,1559,1759,0,4,4,4,4,4,4,4,4,4,4,4,4,4,4,4,4
"50",4490,-242.705263157895,4298,54.7263157894737,-52.4526315789474,3606,-43.3263157894737,4156,4091,-62.1894736842105,-272.452631578947,4454,3772,-230.915789473684,54,0,1563,1759,0,4,4,4,4,4,4,4,4,4,4,4,4,4,4,4,4
"51",4488,-245.778947368421,4291,47.5473684210526,-57.0631578947368,3582,-47.9473684210526,4155,4089,-66.2947368421053,-276.042105263158,4471,3762,-233.989473684211,55,0,1563,1751,0,4,4,4,4,4,4,4,4,4,4,4,4,4,4,4,4
"52",4481,-234.505263157895,4295,56.7789473684211,-56.5473684210526,3589,-46.9157894736842,4170,4089,-59.6315789473684,-279.631578947368,4532,3761,-226.810526315789,56,0,1555,1759,0,4,4,4,4,4,4,4,4,4,4,4,4,4,4,4,4
"53",4476,-225.273684210526,4301,66.5263157894737,-59.6315789473684,3604,-45.3789473684211,4175,4090,-55.5263157894737,-279.631578947368,4566,3764,-222.705263157895,57,0,1563,1751,0,4,4,4,4,4,4,4,4,4,4,4,4,4,4,4,4
"54",4474,-228.347368421053,4303,57.8105263157895,-64.7578947368421,3594,-46.4,4173,4088,-57.0631578947368,-276.547368421053,4557,3775,-230.915789473684,58,0,1559,1751,0,4,4,4,4,4,4,4,4,4,4,4,4,4,4,4,4
"55",4465,-230.4,4301,52.1684210526316,-64.2421052631579,3591,-52.0421052631579,4179,4083,-56.5473684210526,-276.042105263158,4557,3782,-229.884210526316,59,0,1563,1751,0,4,4,4,4,4,4,4,4,4,4,4,4,4,4,4,4
"56",4454,-227.315789473684,4297,61.4,-65.2736842105263,3607,-63.3263157894737,4189,4082,-60.6526315789474,-276.042105263158,4561,3773,-225.273684210526,60,0,1559,1747,0,4,4,4,4,4,4,4,4,4,4,4,4,4,4,4,4
"57",4448,-228.863157894737,4295,56.2736842105263,-71.9368421052632,3621,-73.5789473684211,4200,4088,-65.7789473684211,-277.578947368421,4557,3762,-235.010526315789,61,0,1563,1747,0,4,4,4,4,4,4,4,4,4,4,4,4,4,4,4,4
"58",4441,-231.936842105263,4294,27.0421052631579,-80.6526315789474,3626,-78.2,4204,4092,-60.1368421052632,-285.273684210526,4555,3754,-240.136842105263,62,0,1559,1747,0,4,4,4,4,4,4,4,4,4,4,4,4,4,4,4,4
"59",4435,-229.884210526316,4293,-3.22105263157895,-89.3684210526316,3616,-84.8631578947368,4193,4090,-59.1157894736842,-292.957894736842,4531,3752,-237.063157894737,63,0,1563,1747,0,4,4,4,4,4,4,4,4,4,4,4,4,4,4,4,4
"60",4438,-231.421052631579,4293,-17.0631578947368,-90.9157894736842,3593,-92.0421052631579,4178,4089,-66.8105263157895,-292.452631578947,4495,3755,-246.294736842105,64,0,1567,1747,408,4,4,4,4,4,4,4,4,4,4,4,4,4,4,4,4
"61",4445,-237.578947368421,4295,-18.6,-87.8315789473684,3566,-92.5578947368421,4171,4095,-65.7789473684211,-289.368421052632,4489,3759,-251.421052631579,65,0,1563,1743,473,4,4,4,4,4,4,4,4,4,4,4,4,4,4,4,4
"62",4439,-248.863157894737,4295,-23.2210526315789,-87.8315789473684,3539,-91.5368421052632,4168,4099,-61.1684210526316,-289.884210526316,4490,3757,-248.863157894737,66,0,1563,1747,477,4,4,4,4,4,4,4,4,4,4,4,4,4,4,4,4
"63",4425,-260.136842105263,4293,-32.9578947368421,-89.3684210526316,3519,-94.6105263157895,4161,4094,-61.6842105263158,-290.4,4472,3752,-260.652631578947,67,0,1567,1739,515,4,4,4,4,4,4,4,4,4,4,4,4,4,4,4,4
"64",4422,-255.526315789474,4292,-34.5052631578947,-89.3684210526316,3514,-96.6631578947368,4154,4084,-56.0421052631579,-292.452631578947,4473,3745,-263.221052631579,68,0,1559,1743,507,4,4,4,4,4,4,4,4,4,4,4,4,4,4,4,4
"65",4428,-239.115789473684,4292,-30.9157894736842,-86.8105263157895,3528,-94.6105263157895,4154,4079,-42.1894736842105,-296.547368421053,4491,3739,-243.726315789474,69,0,1567,1743,441,4,4,4,4,4,4,4,4,4,4,4,4,4,4,4,4
"66",4427,-228.347368421053,4294,-32.4526315789474,-82.7052631578947,3574,-93.5789473684211,4154,4077,-34.5052631578947,-296.042105263158,4487,3740,-238.6,70,0,1563,1735,465,4,4,4,4,4,4,4,4,4,4,4,4,4,4,4,4
"67",4427,-216.547368421053,4301,-29.3684210526316,-73.4736842105263,3644,-94.6105263157895,4157,4076,-33.4736842105263,-292.452631578947,4455,3750,-244.242105263158,71,0,1563,1739,452,4,4,4,4,4,4,4,4,4,4,4,4,4,4,4,4
"68",4429,-205.778947368421,4304,-34.5052631578947,-66.8105263157895,3698,-96.1473684210526,4154,4075,-35.0105263157895,-292.957894736842,4414,3755,-245.778947368421,72,0,1563,1735,423,4,4,4,4,4,4,4,4,4,4,4,4,4,4,4,4
"69",4427,-212.957894736842,4297,-69.3684210526316,-65.2736842105263,3716,-97.6842105263158,4122,4075,-37.5789473684211,-294.505263157895,4385,3751,-255.010526315789,73,0,1567,1739,466,4,4,4,4,4,4,4,4,4,4,4,4,4,4,4,4
"70",4422,-221.684210526316,4291,-100.652631578947,-59.1157894736842,3728,-97.1684210526316,4099,4074,-35.5263157894737,-290.4,4383,3756,-266.294736842105,74,0,1563,1735,501,4,4,4,4,4,4,4,4,4,4,4,4,4,4,4,4
"71",4420,-221.168421052632,4289,-106.294736842105,-47.3157894736842,3749,-96.6631578947368,4116,4071,-23.2210526315789,-288.347368421053,4399,3764,-255.010526315789,75,0,1563,1743,469,4,4,4,4,4,4,4,4,4,4,4,4,4,4,4,4
"72",4416,-226.810526315789,4284,-112.452631578947,-39.6315789473684,3760,-97.1684210526316,4128,4066,-8.34736842105263,-291.936842105263,4406,3753,-243.726315789474,76,0,1571,1735,423,4,4,4,4,4,4,4,4,4,4,4,4,4,4,4,4
"73",4413,-231.936842105263,4281,-121.684210526316,-37.0631578947368,3756,-97.6842105263158,4116,4066,-0.136842105263158,-286.294736842105,4403,3752,-254.505263157895,77,0,1563,1739,483,4,4,4,4,4,4,4,4,4,4,4,4,4,4,4,4
"74",4413,-229.884210526316,4282,-115.526315789474,-31.4210526315789,3755,-96.1473684210526,4121,4073,13.7052631578947,-275.010526315789,4409,3775,-253.473684210526,78,0,1567,1739,501,4,4,4,4,4,4,4,4,4,4,4,4,4,4,4,4
"75",4411,-227.315789473684,4282,-106.294736842105,-27.3157894736842,3757,-93.0736842105263,4140,4077,30.1157894736842,-272.452631578947,4415,3787,-241.684210526316,79,0,1571,1739,469,4,4,4,4,4,4,4,4,4,4,4,4,4,4,4,4
"76",4403,-229.368421052632,4281,-109.368421052632,-26.2947368421053,3752,-94.0947368421053,4141,4073,33.1894736842105,-279.115789473684,4399,3777,-252.957894736842,80,0,1571,1735,423,4,4,4,4,4,4,4,4,4,4,4,4,4,4,4,4
"77",4391,-235.010526315789,4278,-112.957894736842,-26.8105263157895,3744,-101.273684210526,4137,4057,36.2736842105263,-285.273684210526,4393,3767,-268.347368421053,81,0,1567,1735,483,4,4,4,4,4,4,4,4,4,4,4,4,4,4,4,4
"78",4377,-237.578947368421,4271,-108.863157894737,-29.3684210526316,3744,-103.842105263158,4148,4034,54.2210526315789,-290.915789473684,4422,3760,-261.168421052632,82,0,1575,1739,501,4,4,4,4,4,4,4,4,4,4,4,4,4,4,4,4
"79",4370,-231.421052631579,4263,-101.168421052632,-29.3684210526316,3751,-102.305263157895,4157,4015,67.0421052631579,-302.705263157895,4434,3756,-255.526315789474,83,0,1575,1735,469,4,4,4,4,4,4,4,4,4,4,4,4,4,4,4,4
"80",4373,-227.831578947368,4260,-91.9368421052632,-32.9578947368421,3756,-106.4,4153,4012,64.4736842105263,-313.473684210526,4410,3757,-259.115789473684,84,0,1575,1743,423,4,4,4,4,4,4,4,4,4,4,4,4,4,4,4,4
"81",4375,-229.368421052632,4265,-84.2421052631579,-41.1684210526316,3756,-113.578947368421,4150,4018,63.9578947368421,-311.936842105263,4396,3765,-262.705263157895,85,0,1579,1735,483,4,4,4,4,4,4,4,4,4,4,4,4,4,4,4,4
"82",4373,-226.294736842105,4276,-82.7052631578947,-35.0105263157895,3754,-108.968421052632,4145,4022,64.9894736842105,-309.368421052632,4393,3765,-272.452631578947,86,0,1579,1739,501,4,4,4,4,4,4,4,4,4,4,4,4,4,4,4,4
"83",4370,-228.347368421053,4280,-86.2947368421053,-20.6526315789474,3744,-98.7157894736842,4124,4017,53.7052631578947,-319.115789473684,4374,3752,-285.273684210526,87,0,1583,1739,469,4,4,4,4,4,4,4,4,4,4,4,4,4,4,4,4
"84",4365,-239.631578947368,4270,-92.4526315789474,-22.7052631578947,3727,-98.7157894736842,4106,4008,35.7578947368421,-325.778947368421,4352,3749,-292.452631578947,88,0,1587,1739,423,4,4,4,4,4,4,4,4,4,4,4,4,4,4,4,4
"85",4359,-242.705263157895,4262,-100.136842105263,-26.2947368421053,3708,-102.810526315789,4105,4008,22.9368421052632,-321.684210526316,4338,3766,-305.778947368421,89,0,1591,1739,483,4,4,4,4,4,4,4,4,4,4,4,4,4,4,4,4
"86",4358,-244.242105263158,4266,-104.242105263158,-17.0631578947368,3689,-103.326315789474,4103,4014,15.2421052631579,-320.136842105263,4321,3771,-322.18947368421,90,0,1587,1739,501,4,4,4,4,4,4,4,4,4,4,4,4,4,4,4,4
"87",4359,-256.042105263158,4263,-103.221052631579,-14.5052631578947,3676,-104.357894736842,4094,4012,6.52631578947368,-322.18947368421,4303,3755,-326.294736842105,91,0,1595,1743,469,4,4,4,4,4,4,4,4,4,4,4,4,4,4,4,4
"88",4351,-260.652631578947,4253,-106.294736842105,-19.6315789473684,3664,-109.484210526316,4087,4010,-0.652631578947368,-323.221052631579,4290,3748,-331.936842105263,92,0,1599,1735,423,4,4,4,4,4,4,4,4,4,4,4,4,4,4,4,4
"89",4333,-268.347368421053,4249,-115.010526315789,-16.5473684210526,3645,-117.168421052632,4081,4019,-4.7578947368421,-321.168421052632,4289,3759,344.578947368421,93,0,1603,1739,483,4,4,4,4,4,4,4,4,4,4,4,4,4,4,4,4
"90",4315,-320.136842105263,4247,-122.705263157895,-19.1157894736842,3633,-125.378947368421,4074,4023,-9.88421052631579,-319.115789473684,4304,3767,-344.242105263158,94,0,1607,1739,501,4,4,4,4,4,4,4,4,4,4,4,4,4,4,4,4
"91",4309,311.252631578947,4245,-121.684210526316,-14.5052631578947,3632,-128.968421052632,4066,4018,-20.6526315789474,-321.168421052632,4316,3757,-335.010526315789,95,0,1607,1739,469,4,4,4,4,4,4,4,4,4,4,4,4,4,4,4,4
"92",4309,306.631578947368,4245,-110.915789473684,12.6842105263158,3628,-122.810526315789,4059,4021,-29.3684210526316,-322.18947368421,4312,3757,-339.631578947368,96,0,1611,1735,423,4,4,4,4,4,4,4,4,4,4,4,4,4,4,4,4
"93",4306,323.042105263158,4249,-103.221052631579,32.6842105263158,3618,-116.663157894737,4057,4028,-29.3684210526316,-317.578947368421,4300,3778,334.326315789474,97,0,1611,1739,483,4,4,4,4,4,4,4,4,4,4,4,4,4,4,4,4
"94",4304,322.021052631579,4249,-101.684210526316,31.1368421052632,3609,-115.631578947368,4059,4028,-30.9157894736842,-317.063157894737,4295,3780,320.989473684211,98,0,1615,1739,501,4,4,4,4,4,4,4,4,4,4,4,4,4,4,4,4
"95",4301,318.431578947368,4238,-103.221052631579,31.1368421052632,3606,-120.768421052632,4060,4019,-34.5052631578947,-321.168421052632,4294,3761,314.842105263158,99,0,1619,1739,469,4,4,4,4,4,4,4,4,4,4,4,4,4,4,4,4
"96",4291,320.989473684211,4232,-106.810526315789,36.2736842105263,3605,-128.968421052632,4060,4012,-33.4736842105263,-323.726315789474,4290,3753,309.715789473684,100,0,1623,1739,423,4,4,4,4,4,4,4,4,4,4,4,4,4,4,4,4
"97",4282,322.021052631579,4233,-111.421052631579,30.1157894736842,3602,-134.094736842105,4061,4011,-31.9368421052632,-321.168421052632,4282,3757,297.915789473684,101,0,1619,1739,483,4,4,4,4,4,4,4,4,4,4,4,4,4,4,4,4
"98",4281,322.536842105263,4235,-117.063157894737,24.4736842105263,3590,-137.684210526316,4054,4012,-38.0947368421053,-317.578947368421,4272,3766,274.326315789474,102,0,1623,1739,501,4,4,4,4,4,4,4,4,4,4,4,4,4,4,4,4
"99",4283,322.021052631579,4232,-122.705263157895,28.5789473684211,3576,-142.305263157895,4042,4012,-46.2947368421053,-316.042105263158,4261,3767,251.757894736842,103,0,1623,1743,469,4,4,4,4,4,4,4,4,4,4,4,4,4,4,4,4
"100",4281,322.536842105263,4232,-125.778947368421,26.5263157894737,3572,-145.378947368421,4043,4012,-42.1894736842105,-315.526315789474,4256,3753,244.578947368421,104,0,1623,1735,423,4,4,4,4,4,4,4,4,4,4,4,4,4,4,4,4
"101",4271,325.094736842105,4233,-123.726315789474,15.7578947368421,3573,-138.715789473684,4051,4007,-24.7578947368421,-309.884210526316,4263,3749,242.536842105263,105,0,1619,1743,483,4,4,4,4,4,4,4,4,4,4,4,4,4,4,4,4
"102",4257,318.936842105263,4228,-124.757894736842,9.6,3564,-135.126315789474,4048,4002,-16.0421052631579,-306.810526315789,4262,3764,229.2,106,0,1623,1743,501,4,4,4,4,4,4,4,4,4,4,4,4,4,4,4,4
"103",4241,307.663157894737,4225,-128.863157894737,11.6526315789474,3546,-142.305263157895,4034,4003,-23.7263157894737,-308.863157894737,4244,3772,211.757894736842,107,0,1623,1739,469,4,4,4,4,4,4,4,4,4,4,4,4,4,4,4,4
"104",4231,303.042105263158,4229,-128.347368421053,20.3684210526316,3533,-140.252631578947,4029,4013,-28.3473684210526,-301.168421052632,4249,3772,206.126315789474,108,0,1623,1743,423,4,4,4,4,4,4,4,4,4,4,4,4,4,4,4,4
"105",4232,307.147368421053,4235,-124.757894736842,25.4947368421053,3528,-126.4,4030,4017,-18.6,-290.4,4286,3764,201.505263157895,109,0,1619,1743,483,4,4,4,4,4,4,4,4,4,4,4,4,4,4,4,4
"106",4226,306.631578947368,4234,-128.863157894737,20.8842105263158,3526,-121.789473684211,4025,4016,-13.9894736842105,-291.421052631579,4315,3758,189.715789473684,110,0,1623,1747,501,4,4,4,4,4,4,4,4,4,4,4,4,4,4,4,4
"107",4209,296.378947368421,4231,-133.473684210526,12.6842105263158,3522,-131.536842105263,4019,4018,-24.2421052631579,-291.936842105263,4309,3766,173.305263157895,111,0,1619,1743,469,4,4,4,4,4,4,4,4,4,4,4,4,4,4,4,4
"108",4197,289.715789473684,4231,-129.884210526316,1.4,3511,-137.684210526316,4014,4020,-35.5263157894737,-283.726315789474,4298,3771,158.431578947368,112,0,1615,1755,423,4,4,4,4,4,4,4,4,4,4,4,4,4,4,4,4
"109",4197,294.842105263158,4229,-126.294736842105,-4.2421052631579,3506,-135.126315789474,4013,4019,-31.9368421052632,-276.547368421053,4299,3772,155.863157894737,113,0,1615,1747,483,4,4,4,4,4,4,4,4,4,4,4,4,4,4,4,4
"110",4201,304.578947368421,4233,-121.684210526316,7.54736842105263,3516,-123.326315789474,4017,4019,-19.1157894736842,-271.421052631579,4301,3783,156.378947368421,114,0,1611,1755,501,4,4,4,4,4,4,4,4,4,4,4,4,4,4,4,4
"111",4204,309.2,4236,-115.526315789474,12.6842105263158,3525,-116.147368421053,4022,4018,-15.5263157894737,-263.221052631579,4299,3789,147.663157894737,115,0,1615,1759,469,4,4,4,4,4,4,4,4,4,4,4,4,4,4,4,4
"112",4197,302.021052631579,4224,-123.726315789474,-2.18947368421053,3517,-123.326315789474,4019,4010,-26.8105263157895,-259.631578947368,4293,3772,132.273684210526,116,0,1607,1755,423,4,4,4,4,4,4,4,4,4,4,4,4,4,4,4,4
"113",4185,294.842105263158,4220,-132.957894736842,-7.31578947368421,3508,-129.484210526316,4013,4008,-35.0105263157895,-261.684210526316,4279,3759,113.305263157895,117,0,1607,1755,483,4,4,4,4,4,4,4,4,4,4,4,4,4,4,4,4
"114",4185,297.4,4230,-124.757894736842,-0.136842105263158,3509,-127.947368421053,4014,4013,-33.4736842105263,-255.526315789474,4267,3772,95.8631578947368,118,0,1603,1763,501,4,4,4,4,4,4,4,4,4,4,4,4,4,4,4,4
"115",4188,304.578947368421,4233,-116.547368421053,-2.70526315789474,3515,-127.947368421053,4021,4013,-32.4526315789474,-243.726315789474,4263,3789,86.6315789473684,119,0,1607,1759,469,4,4,4,4,4,4,4,4,4,4,4,4,4,4,4,4
"116",4183,312.789473684211,4229,-117.578947368421,-3.72631578947368,3515,-127.947368421053,4026,4010,-36.0421052631579,-241.684210526316,4265,3785,82.0210526315789,120,0,1599,1759,423,4,4,4,4,4,4,4,4,4,4,4,4,4,4,4,4
"117",4184,318.936842105263,4232,-110.915789473684,-2.70526315789474,3515,-127.431578947368,4027,4013,-33.9894736842105,-240.136842105263,4264,3779,73.3052631578947,121,0,1599,1763,483,4,4,4,4,4,4,4,4,4,4,4,4,4,4,4,4
"118",4190,324.073684210526,4234,-101.684210526316,-11.4210526315789,3514,-131.536842105263,4031,4021,-23.7263157894737,-224.757894736842,4264,3787,68.1684210526316,122,0,1599,1759,501,4,4,4,4,4,4,4,4,4,4,4,4,4,4,4,4
"119",4187,330.736842105263,4232,-102.189473684211,-20.1368421052632,3512,-135.631578947368,4035,4022,-19.1157894736842,-225.273684210526,4260,3784,58.4315789473684,123,0,1595,1759,469,4,4,4,4,4,4,4,4,4,4,4,4,4,4,4,4
"120",4184,337.915789473684,4234,-98.6,-19.6315789473684,3518,-139.221052631579,4037,4020,-16.0421052631579,-255.526315789474,4257,3771,44.5789473684211,124,0,1595,1759,423,4,4,4,4,4,4,4,4,4,4,4,4,4,4,4,4
"121",4186,337.4,4235,-89.3684210526316,-17.0631578947368,3526,-141.273684210526,4038,4025,-6.29473684210526,-275.526315789474,4259,3779,45.0947368421053,125,0,1595,1759,483,4,4,4,4,4,4,4,4,4,4,4,4,4,4,4,4
"122",4186,330.221052631579,4232,-93.4736842105263,-20.1368421052632,3517,-140.252631578947,4030,4029,-0.136842105263158,-274.505263157895,4255,3791,43.0421052631579,126,0,1595,1759,501,4,4,4,4,4,4,4,4,4,4,4,4,4,4,4,4
"123",4180,323.042105263158,4229,-105.778947368421,-32.9578947368421,3502,-141.273684210526,4009,4025,-2.70526315789474,-275.526315789474,4246,3779,25.6105263157895,127,0,1587,1763,469,4,4,4,4,4,4,4,4,4,4,4,4,4,4,4,4
"124",4171,321.505263157895,4227,-107.831578947368,-47.8315789473684,3493,-147.431578947368,3994,4025,-1.16842105263158,-276.547368421053,4249,3773,12.2736842105263,128,0,1595,1763,423,4,4,4,4,4,4,4,4,4,4,4,4,4,4,4,4
"125",4159,315.863157894737,4221,-113.473684210526,-49.3684210526316,3477,-155.631578947368,3987,4023,-0.136842105263158,-280.652631578947,4248,3775,-0.0315789473684211,0,0,1587,1759,410,4,4,4,4,4,4,4,4,4,4,4,4,4,4,4,4
"126",4151,298.936842105263,4210,-130.4,-45.7789473684211,3461,-163.842105263158,3979,4018,-4.2421052631579,-293.989473684211,4236,3767,-14.9052631578947,1,0,1587,1767,476,4,4,4,4,4,4,4,4,4,4,4,4,4,4,4,4
"127",4150,288.684210526316,4206,-133.473684210526,-55.0105263157895,3459,-167.947368421053,3977,4017,-2.18947368421053,-301.168421052632,4231,3769,-20.5473684210526,2,0,1591,1759,481,4,4,4,4,4,4,4,4,4,4,4,4,4,4,4,4
"128",4153,290.221052631579,4213,-125.273684210526,-64.2421052631579,3456,-164.357894736842,3978,4017,-0.136842105263158,-293.473684210526,4234,3786,-24.1368421052632,3,0,1587,1763,516,4,4,4,4,4,4,4,4,4,4,4,4,4,4,4,4
"129",4149,290.736842105263,4216,-124.757894736842,-64.7578947368421,3450,-166.915789473684,3967,4009,-4.7578947368421,-290.915789473684,4229,3786,-30.8,4,0,1587,1759,507,4,4,4,4,4,4,4,4,4,4,4,4,4,4,4,4
"130",4138,285.094736842105,4211,-128.863157894737,-67.8315789473684,3452,-178.2,3954,4006,-0.652631578947368,-292.957894736842,4227,3781,-31.3157894736842,5,0,1583,1759,441,4,4,4,4,4,4,4,4,4,4,4,4,4,4,4,4
"131",4134,277.915789473684,4212,-126.294736842105,-66.2947368421053,3457,-181.273684210526,3958,4008,14.7263157894737,-284.757894736842,4238,3787,-24.1368421052632,6,0,1579,1759,465,4,4,4,4,4,4,4,4,4,4,4,4,4,4,4,4
"132",4143,276.378947368421,4217,-119.631578947368,-53.4736842105263,3466,-175.126315789474,3968,4006,19.8631578947368,-276.042105263158,4250,3783,-13.3684210526316,7,0,1575,1759,452,4,4,4,4,4,4,4,4,4,4,4,4,4,4,4,4
"133",4152,282.021052631579,4217,-120.136842105263,-45.2736842105263,3476,-167.947368421053,3968,4007,14.2210526315789,-274.505263157895,4251,3780,-10.8,8,0,1571,1759,423,4,4,4,4,4,4,4,4,4,4,4,4,4,4,4,4
"134",4153,286.631578947368,4219,-118.6,-43.2210526315789,3476,-164.863157894737,3969,4013,17.2947368421053,-267.831578947368,4251,3802,-17.4631578947368,9,0,1567,1759,466,4,4,4,4,4,4,4,4,4,4,4,4,4,4,4,4
"135",4157,291.757894736842,4225,-104.242105263158,-32.9578947368421,3479,-161.273684210526,3985,4015,27.0421052631579,-256.042105263158,4259,3823,-12.8526315789474,10,0,1567,1759,501,4,4,4,4,4,4,4,4,4,4,4,4,4,4,4,4
"136",4157,295.863157894737,4225,-98.0947368421053,-21.6842105263158,3489,-159.736842105263,4003,4010,36.2736842105263,-257.063157894737,4272,3817,-0.547368421052632,11,0,1567,1763,469,4,4,4,4,4,4,4,4,4,4,4,4,4,4,4,4
"137",4154,297.4,4218,-105.273684210526,-13.9894736842105,3495,-160.768421052632,4011,4006,43.9578947368421,-261.168421052632,4279,3796,0.989473684210526,12,0,1563,1759,423,4,4,4,4,4,4,4,4,4,4,4,4,4,4,4,4
"138",4160,306.126315789474,4215,-101.684210526316,-3.22105263157895,3502,-156.147368421053,4021,4009,47.0421052631579,-250.915789473684,4281,3793,-6.18947368421053,13,0,1563,1767,483,4,4,4,4,4,4,4,4,4,4,4,4,4,4,4,4
"139",4169,317.915789473684,4221,-93.9894736842105,9.6,3510,-146.4,4036,4021,51.1368421052632,-236.547368421053,4286,3815,-6.69473684210526,14,0,1563,1759,501,4,4,4,4,4,4,4,4,4,4,4,4,4,4,4,4
"140",4168,325.610526315789,4227,-92.9578947368421,15.2421052631579,3526,-137.684210526316,4052,4029,68.0631578947368,-230.4,4303,3823,8.68421052631579,15,0,1559,1763,469,4,4,4,4,4,4,4,4,4,4,4,4,4,4,4,4
"141",4168,333.810526315789,4229,-85.2736842105263,14.2210526315789,3538,-134.610526315789,4062,4029,89.6,-229.368421052632,4315,3817,17.4,16,0,1563,1763,0,4,4,4,4,4,4,4,4,4,4,4,4,4,4,4,4
"142",4170,340.484210526316,4230,-77.0631578947368,12.6842105263158,3535,-130.505263157895,4064,4026,95.7578947368421,-228.347368421053,4314,3819,7.66315789473684,17,0,1559,1767,0,4,4,4,4,4,4,4,4,4,4,4,4,4,4,4,4
"143",4168,338.431578947368,4230,-77.5789473684211,11.1368421052632,3523,-126.915789473684,4061,4028,93.1894736842105,-228.347368421053,4311,3810,-2.08421052631579,18,0,1559,1767,0,4,4,4,4,4,4,4,4,4,4,4,4,4,4,4,4
"144",4174,339.452631578947,4230,-72.4526315789474,13.1894736842105,3520,-123.326315789474,4054,4037,94.2210526315789,-226.810526315789,4306,3797,-9.77894736842105,19,0,1555,1767,0,4,4,4,4,4,4,4,4,4,4,4,4,4,4,4,4
"145",4186,-343.221052631579,4232,-61.1684210526316,12.6842105263158,3522,-123.326315789474,4051,4046,95.7578947368421,-217.063157894737,4303,3811,-15.4210526315789,20,0,1559,1771,0,4,4,4,4,4,4,4,4,4,4,4,4,4,4,4,4
"146",4187,-337.578947368421,4233,-56.5473684210526,3.45263157894737,3522,-131.536842105263,4060,4048,94.7263157894737,-210.4,4309,3820,-11.3157894736842,21,0,1555,1771,0,4,4,4,4,4,4,4,4,4,4,4,4,4,4,4,4
"147",4185,-334.505263157895,4231,-59.6315789473684,0.884210526315789,3527,-137.684210526316,4070,4053,96.778947368421,-211.936842105263,4309,3814,-10.2842105263158,22,0,1551,1779,0,4,4,4,4,4,4,4,4,4,4,4,4,4,4,4,4
"148",4188,-335.010526315789,4232,-68.8631578947368,4.47368421052632,3526,-133.073684210526,4070,4059,98.3157894736842,-207.831578947368,4296,3816,-20.0315789473684,23,0,1555,1775,0,4,4,4,4,4,4,4,4,4,4,4,4,4,4,4,4
"149",4188,-337.578947368421,4234,-73.4736842105263,3.45263157894737,3517,-133.578947368421,4071,4056,91.1368421052632,-200.136842105263,4293,3811,-21.0631578947368,24,0,1547,1779,0,4,4,4,4,4,4,4,4,4,4,4,4,4,4,4,4
"150",4185,-336.547368421053,4233,-63.2210526315789,7.04210526315789,3517,-143.842105263158,4079,4056,94.2210526315789,-197.578947368421,4302,3804,-15.4210526315789,25,0,1555,1783,0,4,4,4,4,4,4,4,4,4,4,4,4,4,4,4,4
"151",4187,-335.526315789474,4228,-66.2947368421053,14.2210526315789,3517,-148.968421052632,4086,4067,107.042105263158,-196.042105263158,4296,3816,-13.8736842105263,26,0,1551,1783,0,4,4,4,4,4,4,4,4,4,4,4,4,4,4,4,4
"152",4186,-340.136842105263,4222,-95.5263157894737,3.95789473684211,3503,-155.631578947368,4080,4070,102.421052631579,-194.505263157895,4262,3826,-19.5157894736842,27,0,1551,1787,0,4,4,4,4,4,4,4,4,4,4,4,4,4,4,4,4
"153",4175,338.936842105263,4213,-113.473684210526,-16.0421052631579,3490,-171.536842105263,4066,4066,92.1684210526316,-196.547368421053,4231,3815,-26.1894736842105,28,0,1547,1791,0,4,4,4,4,4,4,4,4,4,4,4,4,4,4,4,4
"154",4164,327.663157894737,4205,-112.452631578947,-19.6315789473684,3493,-182.810526315789,4055,4069,95.7578947368421,-199.631578947368,4229,3800,-26.1894736842105,29,0,1555,1791,0,4,4,4,4,4,4,4,4,4,4,4,4,4,4,4,4
"155",4164,328.684210526316,4202,-136.042105263158,-14.5052631578947,3495,-181.789473684211,4053,4076,98.3157894736842,-194.505263157895,4233,3794,-28.2421052631579,30,0,1551,1791,0,4,4,4,4,4,4,4,4,4,4,4,4,4,4,4,4
"156",4172,334.326315789474,4205,-175.010526315789,-15.0105263157895,3491,-180.768421052632,4052,4081,97.2947368421053,-183.221052631579,4229,3806,-37.4631578947368,31,0,1551,1803,0,4,4,4,4,4,4,4,4,4,4,4,4,4,4,4,4
"157",4168,328.168421052632,4203,-186.294736842105,-19.6315789473684,3483,-187.431578947368,4045,4084,103.957894736842,-178.6,4231,3818,-31.3157894736842,32,0,1551,1799,0,4,4,4,4,4,4,4,4,4,4,4,4,4,4,4,4
"158",4156,315.347368421053,4192,-179.115789473684,-19.6315789473684,3470,-193.578947368421,4035,4087,105.494736842105,-184.242105263158,4236,3809,-22.0842105263158,33,0,1551,1807,0,4,4,4,4,4,4,4,4,4,4,4,4,4,4,4,4
"159",4150,310.221052631579,4185,-183.221052631579,-19.1157894736842,3460,-195.631578947368,4026,4091,101.905263157895,-185.778947368421,4235,3799,-34.3894736842105,34,0,1551,1803,0,4,4,4,4,4,4,4,4,4,4,4,4,4,4,4,4
"160",4154,310.221052631579,4184,-188.347368421053,-19.6315789473684,3460,-194.610526315789,4026,4093,107.547368421053,-182.189473684211,4233,3791,-43.1052631578947,35,0,1551,1807,0,4,4,4,4,4,4,4,4,4,4,4,4,4,4,4,4
"161",4157,311.252631578947,4191,-179.115789473684,-17.0631578947368,3458,-191.021052631579,4027,4095,112.168421052632,-182.189473684211,4240,3784,-39.0105263157895,36,0,1551,1807,0,4,4,4,4,4,4,4,4,4,4,4,4,4,4,4,4
"162",4155,311.252631578947,4199,-179.631578947368,-16.0421052631579,3443,-189.484210526316,4024,4102,110.115789473684,-181.168421052632,4244,3793,-53.3684210526316,37,0,1551,1811,0,4,4,4,4,4,4,4,4,4,4,4,4,4,4,4,4
"163",4154,304.578947368421,4195,-202.705263157895,-18.6,3423,-197.168421052632,4016,4107,112.684210526316,-178.094736842105,4233,3806,-79.5157894736842,38,0,1555,1811,0,4,4,4,4,4,4,4,4,4,4,4,4,4,4,4,4
"164",4160,304.073684210526,4187,-218.6,-18.6,3422,-209.484210526316,4015,4109,122.936842105263,-178.6,4227,3803,-79.5157894736842,39,0,1547,1807,0,4,4,4,4,4,4,4,4,4,4,4,4,4,4,4,4
"165",4167,315.347368421053,4184,-214.505263157895,-16.5473684210526,3438,-214.610526315789,4023,4111,135.242105263158,-180.136842105263,4232,3794,-64.1368421052632,40,0,1547,1811,0,4,4,4,4,4,4,4,4,4,4,4,4,4,4,4,4
"166",4171,326.631578947368,4184,-205.273684210526,-18.0947368421053,3454,-213.073684210526,4035,4114,143.452631578947,-182.189473684211,4235,3788,-61.5684210526316,41,0,1547,1807,0,4,4,4,4,4,4,4,4,4,4,4,4,4,4,4,4
"167",4170,329.715789473684,4186,-198.094736842105,-19.6315789473684,3455,-212.042105263158,4033,4117,141.4,-182.705263157895,4230,3786,-71.8315789473684,42,0,1547,1807,0,4,4,4,4,4,4,4,4,4,4,4,4,4,4,4,4
"168",4169,328.168421052632,4189,-195.010526315789,-18.6,3453,-217.168421052632,4024,4120,136.273684210526,-180.136842105263,4221,3793,-76.4421052631579,43,0,1547,1807,0,4,4,4,4,4,4,4,4,4,4,4,4,4,4,4,4
"169",4175,327.147368421053,4188,-197.578947368421,-20.1368421052632,3459,-225.894736842105,4028,4122,138.315789473684,-178.6,4219,3804,-68.2421052631579,44,0,1547,1807,0,4,4,4,4,4,4,4,4,4,4,4,4,4,4,4,4
"170",4184,324.578947368421,4184,-193.989473684211,-20.6526315789474,3461,-229.989473684211,4030,4122,145.494736842105,-182.189473684211,4226,3802,-65.1578947368421,45,0,1547,1803,0,4,4,4,4,4,4,4,4,4,4,4,4,4,4,4,4
"171",4187,324.073684210526,4185,-203.221052631579,-18.0947368421053,3453,-226.4,4022,4120,151.136842105263,-184.242105263158,4230,3787,-65.1578947368421,46,0,1543,1799,0,4,4,4,4,4,4,4,4,4,4,4,4,4,4,4,4
"172",4193,326.631578947368,4187,-256.042105263158,-16.5473684210526,3453,-215.631578947368,4020,4122,152.168421052632,-181.168421052632,4232,3791,-55.4210526315789,47,0,1543,1799,0,4,4,4,4,4,4,4,4,4,4,4,4,4,4,4,4
"173",4207,328.684210526316,4187,-309.368421052632,-11.4210526315789,3457,-212.042105263158,4014,4125,146.010526315789,-177.063157894737,4236,3815,-42.6,48,0,1543,1795,0,4,4,4,4,4,4,4,4,4,4,4,4,4,4,4,4
"174",4209,329.2,4187,-315.010526315789,-3.22105263157895,3450,-219.736842105263,4003,4125,141.4,-178.094736842105,4235,3827,-35.4210526315789,49,0,1543,1795,0,4,4,4,4,4,4,4,4,4,4,4,4,4,4,4,4
"175",4200,328.168421052632,4185,-305.778947368421,-3.72631578947368,3441,-230.505263157895,4003,4123,139.347368421053,-179.631578947368,4233,3815,-26.6947368421053,50,0,1543,1799,0,4,4,4,4,4,4,4,4,4,4,4,4,4,4,4,4
"176",4198,324.578947368421,4185,-314.505263157895,-11.4210526315789,3447,-237.684210526316,4007,4123,138.831578947368,-177.063157894737,4234,3805,-17.9789473684211,51,0,1543,1791,0,4,4,4,4,4,4,4,4,4,4,4,4,4,4,4,4
"177",4198,321.505263157895,4184,-313.473684210526,-13.9894736842105,3463,-241.273684210526,4008,4123,137.294736842105,-177.063157894737,4234,3803,-13.8736842105263,52,0,1539,1795,0,4,4,4,4,4,4,4,4,4,4,4,4,4,4,4,4
"178",4187,314.842105263158,4176,-300.652631578947,-21.6842105263158,3465,-243.842105263158,4009,4115,129.6,-181.684210526316,4233,3803,-14.3894736842105,53,0,1543,1791,0,4,4,4,4,4,4,4,4,4,4,4,4,4,4,4,4
"179",4170,304.578947368421,4173,-303.221052631579,-31.4210526315789,3457,-248.452631578947,4009,4108,122.421052631579,-183.221052631579,4229,3804,-13.8736842105263,54,0,1539,1795,0,4,4,4,4,4,4,4,4,4,4,4,4,4,4,4,4
"180",4174,303.557894736842,4183,-306.810526315789,-24.2421052631579,3462,-246.4,4014,4116,131.652631578947,-180.136842105263,4229,3812,-8.24210526315789,55,0,1543,1795,0,4,4,4,4,4,4,4,4,4,4,4,4,4,4,4,4
"181",4184,308.684210526316,4185,-304.242105263158,-17.0631578947368,3471,-240.768421052632,4014,4121,144.989473684211,-179.631578947368,4232,3818,-1.56842105263158,56,0,1539,1791,0,4,4,4,4,4,4,4,4,4,4,4,4,4,4,4,4
"182",4176,306.126315789474,4172,-306.294736842105,-31.4210526315789,3463,-242.305263157895,4005,4115,151.136842105263,-181.684210526316,4235,3799,4.07368421052632,57,0,1543,1791,0,4,4,4,4,4,4,4,4,4,4,4,4,4,4,4,4
"183",4164,301.505263157895,4168,-303.221052631579,-51.4210526315789,3450,-248.968421052632,4005,4115,157.810526315789,-185.778947368421,4233,3785,2.02105263157895,58,0,1539,1791,0,4,4,4,4,4,4,4,4,4,4,4,4,4,4,4,4
"184",4156,302.021052631579,4171,-296.042105263158,-60.1368421052632,3445,-255.126315789474,4012,4114,159.863157894737,-189.884210526316,4222,3797,-11.8315789473684,59,0,1543,1791,0,4,4,4,4,4,4,4,4,4,4,4,4,4,4,4,4
"185",4155,305.094736842105,4175,-291.936842105263,-55.5263157894737,3446,-260.252631578947,4011,4110,160.884210526316,-189.368421052632,4212,3807,-16.9578947368421,60,0,1539,1787,0,4,4,4,4,4,4,4,4,4,4,4,4,4,4,4,4
"186",4164,314.842105263158,4184,-277.063157894737,-40.6526315789474,3454,-259.736842105263,4017,4117,176.273684210526,-187.315789473684,4219,3800,-6.18947368421053,61,0,1543,1791,0,4,4,4,4,4,4,4,4,4,4,4,4,4,4,4,4
"187",4178,330.736842105263,4189,-251.421052631579,-29.3684210526316,3463,-255.631578947368,4034,4125,194.726315789474,-185.273684210526,4227,3801,6.12631578947368,62,0,1547,1783,0,4,4,4,4,4,4,4,4,4,4,4,4,4,4,4,4
"188",4184,340.989473684211,4187,-240.136842105263,-28.8631578947368,3467,-255.126315789474,4044,4124,196.273684210526,-185.273684210526,4218,3807,9.71578947368421,63,0,1543,1787,0,4,4,4,4,4,4,4,4,4,4,4,4,4,4,4,4
"189",4181,343.557894736842,4182,-243.726315789474,-39.1157894736842,3465,-263.842105263158,4045,4125,188.578947368421,-191.421052631579,4205,3793,6.63157894736842,64,0,1547,1787,412,4,4,4,4,4,4,4,4,4,4,4,4,4,4,4,4
"190",4177,-343.726315789474,4172,-239.115789473684,-56.0421052631579,3454,-276.663157894737,4044,4123,186.526315789474,-199.115789473684,4197,3780,-3.62105263157895,65,0,1547,1783,480,4,4,4,4,4,4,4,4,4,4,4,4,4,4,4,4
"191",4184,-336.042105263158,4161,-229.368421052632,-57.5789473684211,3444,-278.715789473684,4050,4119,193.189473684211,-199.115789473684,4196,3795,0.484210526315789,66,0,1547,1783,481,4,4,4,4,4,4,4,4,4,4,4,4,4,4,4,4
"192",4202,-324.757894736842,4155,-221.168421052632,-47.8315789473684,3447,-274.610526315789,4059,4122,203.452631578947,-196.547368421053,4208,3805,27.6631578947368,67,0,1543,1779,516,4,4,4,4,4,4,4,4,4,4,4,4,4,4,4,4
"193",4211,-315.010526315789,4151,-216.042105263158,-50.4,3458,-275.631578947368,4065,4122,211.652631578947,-199.115789473684,4218,3794,46.1263157894737,68,0,1547,1783,507,4,4,4,4,4,4,4,4,4,4,4,4,4,4,4,4
"194",4214,-306.810526315789,4153,-211.421052631579,-48.3473684210526,3463,-276.663157894737,4072,4122,214.726315789474,-198.6,4218,3797,46.1263157894737,69,0,1543,1779,441,4,4,4,4,4,4,4,4,4,4,4,4,4,4,4,4
"195",4220,-306.294736842105,4156,-206.294736842105,-28.8631578947368,3461,-274.610526315789,4078,4124,211.652631578947,-195.526315789474,4214,3808,43.5578947368421,70,0,1547,1783,465,4,4,4,4,4,4,4,4,4,4,4,4,4,4,4,4
"196",4212,-318.094736842105,4154,-209.368421052632,-27.8315789473684,3451,-276.147368421053,4076,4123,208.578947368421,-200.136842105263,4207,3796,49.2,71,0,1547,1775,452,4,4,4,4,4,4,4,4,4,4,4,4,4,4,4,4
"197",4197,-326.810526315789,4152,-212.957894736842,-41.6842105263158,3447,-278.2,4075,4119,209.084210526316,-205.778947368421,4204,3792,58.4315789473684,72,0,1547,1779,426,4,4,4,4,4,4,4,4,4,4,4,4,4,4,4,4
"198",4208,-318.094736842105,4158,-199.631578947368,-27.8315789473684,3460,-273.578947368421,4083,4121,211.652631578947,-200.652631578947,4212,3800,64.0736842105263,73,0,1547,1775,466,4,4,4,4,4,4,4,4,4,4,4,4,4,4,4,4
"199",4223,-307.315789473684,4161,-188.347368421053,-11.9368421052632,3471,-269.989473684211,4088,4123,211.136842105263,-195.010526315789,4215,3804,65.0947368421053,74,0,1551,1775,501,4,4,4,4,4,4,4,4,4,4,4,4,4,4,4,4
"200",4211,-310.4,4155,-201.168421052632,-27.8315789473684,3465,-275.631578947368,4087,4121,210.631578947368,-201.168421052632,4211,3804,65.6105263157895,75,0,1551,1771,469,4,4,4,4,4,4,4,4,4,4,4,4,4,4,4,4
"201",4198,-312.957894736842,4154,-200.652631578947,-41.1684210526316,3461,-278.2,4087,4119,218.831578947368,-209.884210526316,4214,3794,75.8631578947368,76,0,1547,1775,423,4,4,4,4,4,4,4,4,4,4,4,4,4,4,4,4
"202",4205,-308.347368421053,4157,-186.294736842105,-31.9368421052632,3465,-268.968421052632,4093,4119,228.578947368421,-210.4,4221,3784,88.6842105263158,77,0,1555,1775,483,4,4,4,4,4,4,4,4,4,4,4,4,4,4,4,4
"203",4206,-306.810526315789,4156,-206.810526315789,-26.8105263157895,3465,-264.357894736842,4095,4121,236.273684210526,-208.863157894737,4221,3792,92.2736842105263,78,0,1547,1767,501,4,4,4,4,4,4,4,4,4,4,4,4,4,4,4,4
"204",4201,-313.473684210526,4154,-241.168421052632,-36.0421052631579,3466,-271.536842105263,4088,4123,243.957894736842,-209.368421052632,4216,3807,85.6105263157895,79,0,1547,1775,469,4,4,4,4,4,4,4,4,4,4,4,4,4,4,4,4
"205",4206,-311.936842105263,4154,-232.452631578947,-37.0631578947368,3478,-277.168421052632,4092,4122,253.189473684211,-211.421052631579,4223,3802,91.2526315789474,80,0,1551,1767,423,4,4,4,4,4,4,4,4,4,4,4,4,4,4,4,4
"206",4217,-298.6,4155,-198.6,-28.3473684210526,3496,-274.610526315789,4112,4125,268.578947368421,-209.884210526316,4242,3790,116.894736842105,81,0,1547,1767,483,4,4,4,4,4,4,4,4,4,4,4,4,4,4,4,4
"207",4219,-297.063157894737,4155,-190.4,-23.7263157894737,3501,-276.147368421053,4115,4127,278.315789473684,-210.4,4243,3786,122.021052631579,82,0,1551,1767,501,4,4,4,4,4,4,4,4,4,4,4,4,4,4,4,4
"208",4215,-307.831578947368,4153,-200.136842105263,-30.4,3490,-286.4,4106,4124,274.221052631579,-213.473684210526,4230,3784,107.147368421053,83,0,1547,1771,469,4,4,4,4,4,4,4,4,4,4,4,4,4,4,4,4
"209",4216,-301.168421052632,4152,-197.063157894737,-37.0631578947368,3484,-292.557894736842,4108,4127,275.757894736842,-215.010526315789,4233,3784,108.684210526316,84,0,1551,1767,423,4,4,4,4,4,4,4,4,4,4,4,4,4,4,4,4
"210",4219,-287.315789473684,4155,-193.473684210526,-30.4,3490,-293.578947368421,4111,4136,287.547368421053,-214.505263157895,4236,3785,110.736842105263,85,0,1551,1767,483,4,4,4,4,4,4,4,4,4,4,4,4,4,4,4,4
"211",4212,-296.547368421053,4153,-212.957894736842,-29.8842105263158,3486,-305.378947368421,4104,4137,284.989473684211,-211.421052631579,4223,3783,94.8421052631579,86,0,1547,1763,501,4,4,4,4,4,4,4,4,4,4,4,4,4,4,4,4
"212",4202,-316.547368421053,4140,-236.042105263158,-46.2947368421053,3472,-320.252631578947,4093,4134,274.726315789474,-215.526315789474,4214,3773,88.6842105263158,87,0,1551,1767,469,4,4,4,4,4,4,4,4,4,4,4,4,4,4,4,4
"213",4205,-323.221052631579,4131,-234.505263157895,-55.0105263157895,3459,-317.168421052632,4078,4136,276.273684210526,-225.778947368421,4210,3765,93.8105263157895,88,0,1547,1763,423,4,4,4,4,4,4,4,4,4,4,4,4,4,4,4,4
"214",4222,-315.526315789474,4133,-219.115789473684,-47.8315789473684,3449,-307.947368421053,4067,4139,282.936842105263,-223.726315789474,4202,3769,87.6631578947368,89,0,1551,1767,483,4,4,4,4,4,4,4,4,4,4,4,4,4,4,4,4
"215",4234,-308.863157894737,4136,-205.273684210526,-46.2947368421053,3446,-300.252631578947,4074,4139,286.526315789474,-212.957894736842,4199,3782,83.0421052631579,90,0,1551,1759,501,4,4,4,4,4,4,4,4,4,4,4,4,4,4,4,4
"216",4233,-315.010526315789,4135,-197.578947368421,-46.8105263157895,3450,-291.021052631579,4087,4141,289.6,-211.421052631579,4210,3788,95.8631578947368,91,0,1543,1767,469,4,4,4,4,4,4,4,4,4,4,4,4,4,4,4,4
"217",4227,-328.347368421053,4135,-198.094736842105,-36.5473684210526,3451,-286.4,4084,4142,287.042105263158,-212.957894736842,4216,3790,105.610526315789,92,0,1551,1763,423,4,4,4,4,4,4,4,4,4,4,4,4,4,4,4,4
"218",4232,-335.010526315789,4136,-199.115789473684,-28.8631578947368,3445,-281.789473684211,4076,4142,281.905263157895,-209.884210526316,4216,3788,109.715789473684,93,0,1547,1763,483,4,4,4,4,4,4,4,4,4,4,4,4,4,4,4,4
"219",4238,-335.010526315789,4136,-194.505263157895,-30.4,3445,-277.168421052632,4082,4139,280.884210526316,-209.884210526316,4217,3778,117.915789473684,94,0,1547,1763,501,4,4,4,4,4,4,4,4,4,4,4,4,4,4,4,4
"220",4224,-336.547368421053,4138,-193.989473684211,-31.9368421052632,3446,-282.810526315789,4083,4136,277.294736842105,-212.957894736842,4216,3784,116.378947368421,95,0,1547,1763,469,4,4,4,4,4,4,4,4,4,4,4,4,4,4,4,4
"221",4217,-337.578947368421,4137,-195.010526315789,-35.0105263157895,3445,-290.505263157895,4074,4137,272.168421052632,-212.957894736842,4214,3802,109.2,96,0,1551,1759,423,4,4,4,4,4,4,4,4,4,4,4,4,4,4,4,4
"222",4231,-331.936842105263,4133,-197.063157894737,-44.7578947368421,3451,-287.947368421053,4075,4134,271.652631578947,-210.4,4215,3795,117.4,97,0,1547,1759,483,4,4,4,4,4,4,4,4,4,4,4,4,4,4,4,4
"223",4229,-331.421052631579,4122,-206.294736842105,-52.4526315789474,3461,-286.915789473684,4080,4123,274.221052631579,-214.505263157895,4217,3771,125.094736842105,98,0,1547,1763,501,4,4,4,4,4,4,4,4,4,4,4,4,4,4,4,4
"224",4211,-344.757894736842,4112,-213.989473684211,-49.8842105263158,3462,-292.557894736842,4076,4118,279.347368421053,-224.757894736842,4214,3771,120.484210526316,99,0,1547,1755,469,4,4,4,4,4,4,4,4,4,4,4,4,4,4,4,4
"225",4211,341.505263157895,4115,-203.221052631579,-40.6526315789474,3463,-300.768421052632,4079,4121,287.042105263158,-223.221052631579,4215,3776,124.073684210526,100,0,1543,1763,423,4,4,4,4,4,4,4,4,4,4,4,4,4,4,4,4
"226",4217,-337.578947368421,4122,-185.273684210526,-34.5052631578947,3461,-306.915789473684,4083,4120,289.084210526316,-215.010526315789,4217,3770,127.663157894737,101,0,1547,1759,483,4,4,4,4,4,4,4,4,4,4,4,4,4,4,4,4
"227",4215,-333.989473684211,4119,-181.684210526316,-35.5263157894737,3454,-304.863157894737,4078,4119,292.684210526316,-213.473684210526,4216,3779,126.631578947368,102,0,1543,1759,501,4,4,4,4,4,4,4,4,4,4,4,4,4,4,4,4
"228",4215,-329.884210526316,4112,-180.652631578947,-38.0947368421053,3458,-302.305263157895,4079,4123,310.631578947368,-215.010526315789,4218,3789,137.4,103,0,1547,1755,469,4,4,4,4,4,4,4,4,4,4,4,4,4,4,4,4
"229",4216,-324.242105263158,4109,-170.4,-42.7052631578947,3461,-305.378947368421,4084,4123,323.957894736842,-212.957894736842,4221,3776,144.578947368421,104,0,1543,1755,423,4,4,4,4,4,4,4,4,4,4,4,4,4,4,4,4
"230",4216,-326.294736842105,4108,-164.242105263158,-46.2947368421053,3447,-305.378947368421,4084,4125,330.631578947368,-213.473684210526,4217,3766,140.484210526316,105,0,1543,1755,483,4,4,4,4,4,4,4,4,4,4,4,4,4,4,4,4
"231",4227,-321.684210526316,4110,-155.010526315789,-40.1368421052632,3444,-302.305263157895,4087,4133,-342.810526315789,-213.473684210526,4222,3767,138.936842105263,106,0,1539,1755,501,4,4,4,4,4,4,4,4,4,4,4,4,4,4,4,4
"232",4237,-306.810526315789,4111,-141.684210526316,-30.4,3453,-303.326315789474,4094,4137,-332.557894736842,-211.421052631579,4232,3768,140.484210526316,107,0,1543,1755,469,4,4,4,4,4,4,4,4,4,4,4,4,4,4,4,4
"233",4234,-304.757894736842,4111,-142.189473684211,-33.9894736842105,3443,-305.378947368421,4087,4135,-338.2,-211.421052631579,4226,3777,139.968421052632,108,0,1539,1751,423,4,4,4,4,4,4,4,4,4,4,4,4,4,4,4,4
"234",4234,-305.273684210526,4118,-147.831578947368,-42.7052631578947,3428,-306.4,4078,4137,-332.557894736842,-209.368421052632,4214,3790,138.936842105263,109,0,1535,1755,483,4,4,4,4,4,4,4,4,4,4,4,4,4,4,4,4
"235",4244,-295.010526315789,4124,-139.631578947368,-42.7052631578947,3431,-304.357894736842,4082,4140,-320.252631578947,-209.368421052632,4219,3781,139.968421052632,110,0,1539,1751,501,4,4,4,4,4,4,4,4,4,4,4,4,4,4,4,4
"236",4248,-291.936842105263,4122,-131.936842105263,-43.2210526315789,3442,-303.326315789474,4089,4137,-318.2,-210.4,4230,3771,150.221052631579,111,0,1535,1751,469,4,4,4,4,4,4,4,4,4,4,4,4,4,4,4,4
"237",4246,-293.989473684211,4122,-132.957894736842,-50.4,3448,-301.789473684211,4094,4138,-312.042105263158,-207.315789473684,4233,3781,166.631578947368,112,0,1535,1751,423,4,4,4,4,4,4,4,4,4,4,4,4,4,4,4,4
"238",4239,-292.957894736842,4125,-133.473684210526,-51.9368421052632,3450,-306.4,4089,4141,-304.357894736842,-201.168421052632,4234,3791,173.305263157895,113,0,1535,1755,483,4,4,4,4,4,4,4,4,4,4,4,4,4,4,4,4
"239",4232,-299.115789473684,4123,-135.526315789474,-44.2421052631579,3448,-315.631578947368,4075,4140,-307.947368421053,-199.631578947368,4233,3787,167.663157894737,114,0,1539,1747,501,4,4,4,4,4,4,4,4,4,4,4,4,4,4,4,4
"240",4234,-302.18947368421,4121,-135.526315789474,-33.4736842105263,3451,-316.147368421053,4072,4138,-310.505263157895,-201.684210526316,4239,3779,173.810526315789,115,0,1531,1751,469,4,4,4,4,4,4,4,4,4,4,4,4,4,4,4,4
"241",4233,-294.505263157895,4123,-129.368421052632,-31.9368421052632,3462,-308.968421052632,4085,4137,-305.894736842105,-200.652631578947,4251,3778,194.326315789474,116,0,1539,1755,423,4,4,4,4,4,4,4,4,4,4,4,4,4,4,4,4
"242",4231,-292.452631578947,4125,-122.189473684211,-42.7052631578947,3459,-305.378947368421,4088,4142,-299.736842105263,-196.042105263158,4254,3785,200.989473684211,117,0,1539,1751,483,4,4,4,4,4,4,4,4,4,4,4,4,4,4,4,4
"243",4229,-294.505263157895,4125,-120.136842105263,-45.7789473684211,3450,-306.4,4085,4150,-292.042105263158,-193.989473684211,4255,3788,198.936842105263,118,0,1535,1755,501,4,4,4,4,4,4,4,4,4,4,4,4,4,4,4,4
"244",4223,-291.421052631579,4126,-127.831578947368,-36.5473684210526,3454,-307.947368421053,4085,4154,-295.126315789474,-192.957894736842,4255,3787,198.431578947368,119,0,1535,1755,469,4,4,4,4,4,4,4,4,4,4,4,4,4,4,4,4
"245",4216,-288.863157894737,4123,-138.094736842105,-42.1894736842105,3453,-305.894736842105,4079,4150,-309.484210526316,-193.473684210526,4245,3786,190.221052631579,120,0,1535,1755,423,4,4,4,4,4,4,4,4,4,4,4,4,4,4,4,4
"246",4212,-293.473684210526,4115,-140.652631578947,-58.0947368421053,3437,-306.915789473684,4077,4144,-319.736842105263,-195.526315789474,4233,3778,184.578947368421,121,0,1535,1755,483,4,4,4,4,4,4,4,4,4,4,4,4,4,4,4,4
"247",4204,-300.136842105263,4110,-138.094736842105,-59.1157894736842,3430,-317.684210526316,4060,4140,-323.842105263158,-197.063157894737,4233,3769,185.094736842105,122,0,1531,1755,501,4,4,4,4,4,4,4,4,4,4,4,4,4,4,4,4
"248",4196,-300.652631578947,4110,-135.010526315789,-53.4736842105263,3433,-325.378947368421,4009,4139,-321.789473684211,-197.063157894737,4231,3771,178.431578947368,123,0,1527,1755,469,4,4,4,4,4,4,4,4,4,4,4,4,4,4,4,4
"249",4202,-292.452631578947,4108,-126.810526315789,-55.0105263157895,3432,-321.273684210526,3964,4140,-324.357894736842,-198.094736842105,4218,3771,168.168421052632,124,0,1531,1763,423,4,4,4,4,4,4,4,4,4,4,4,4,4,4,4,4
"250",4209,-285.273684210526,4111,-118.6,-58.6,3426,-320.768421052632,3959,4137,-333.073684210526,-199.115789473684,4213,3765,160.484210526316,125,0,1527,1763,483,4,4,4,4,4,4,4,4,4,4,4,4,4,4,4,4
"251",4206,-288.347368421053,4118,-116.547368421053,-66.2947368421053,3419,-324.357894736842,3958,4139,-336.663157894737,-197.063157894737,4216,3770,157.4,126,0,1527,1763,501,4,4,4,4,4,4,4,4,4,4,4,4,4,4,4,4
"252",4197,-286.294736842105,4114,-112.957894736842,-75.5263157894737,3417,-324.863157894737,3945,4147,-332.557894736842,-197.063157894737,4214,3774,161.505263157895,127,0,1523,1767,469,4,4,4,4,4,4,4,4,4,4,4,4,4,4,4,4
"253",4197,-277.063157894737,4111,-99.6315789473684,-80.1368421052632,3414,-322.305263157895,3940,4146,-333.073684210526,-199.631578947368,4203,3761,148.168421052632,128,0,1527,1775,423,4,4,4,4,4,4,4,4,4,4,4,4,4,4,4,4
"254",4207,-272.957894736842,4114,-90.4,-85.7789473684211,3400,-324.357894736842,3937,4137,-339.736842105263,-200.136842105263,4190,3748,126.126315789474,0,0,1527,1771,413,4,4,4,4,4,4,4,4,4,4,4,4,4,4,4,4
"255",4206,-280.136842105263,4116,-96.5473684210526,-92.4526315789474,3383,-332.557894736842,3923,4141,338.315789473684,-198.6,4173,3757,119.968421052632,1,0,1519,1783,485,4,4,4,4,4,4,4,4,4,4,4,4,4,4,4,4
"256",4192,-287.831578947368,4114,-102.705263157895,-94.5052631578947,3372,-338.2,3911,4151,324.473684210526,-197.063157894737,4159,3766,117.4,2,0,1523,1779,481,4,4,4,4,4,4,4,4,4,4,4,4,4,4,4,4
"257",4182,-289.884210526316,4110,-102.189473684211,-93.9894736842105,3365,-342.305263157895,3901,4147,308.578947368421,-195.526315789474,4149,3758,104.073684210526,3,0,1519,1787,516,4,4,4,4,4,4,4,4,4,4,4,4,4,4,4,4
"258",4181,-302.18947368421,4106,-111.421052631579,-99.6315789473684,3351,335.757894736842,3884,4137,287.042105263158,-196.042105263158,4134,3754,88.6842105263158,4,0,1523,1791,507,4,4,4,4,4,4,4,4,4,4,4,4,4,4,4,4
"259",4182,-310.4,4102,-118.6,-106.294736842105,3341,332.168421052632,3877,4137,272.684210526316,-199.631578947368,4129,3753,85.6105263157895,5,0,1519,1795,441,4,4,4,4,4,4,4,4,4,4,4,4,4,4,4,4
"260",4183,-297.063157894737,4108,-106.294736842105,-102.189473684211,3346,343.957894736842,3892,4138,275.242105263158,-198.6,4138,3757,93.8105263157895,6,0,1523,1795,465,4,4,4,4,4,4,4,4,4,4,4,4,4,4,4,4
"261",4184,-288.863157894737,4118,-92.4526315789474,-92.4526315789474,3351,-338.715789473684,3896,4137,272.684210526316,-190.915789473684,4141,3761,89.2,7,0,1519,1795,452,4,4,4,4,4,4,4,4,4,4,4,4,4,4,4,4
"262",4186,-303.221052631579,4122,-94.5052631578947,-87.3157894736842,3339,-335.631578947368,3882,4136,261.4,-186.810526315789,4135,3759,76.3789473684211,8,0,1523,1799,427,4,4,4,4,4,4,4,4,4,4,4,4,4,4,4,4
"263",4187,-310.4,4121,-100.652631578947,-89.3684210526316,3329,-326.4,3875,4133,263.452631578947,-186.294736842105,4136,3761,83.5578947368421,9,0,1519,1795,466,4,4,4,4,4,4,4,4,4,4,4,4,4,4,4,4
"264",4186,-305.273684210526,4122,-102.189473684211,-89.8842105263158,3331,-321.789473684211,3878,4132,274.221052631579,-183.221052631579,4142,3769,96.8947368421053,10,0,1519,1799,503,4,4,4,4,4,4,4,4,4,4,4,4,4,4,4,4
"265",4189,-302.705263157895,4125,-99.6315789473684,-84.2421052631579,3330,-324.357894736842,3878,4133,273.705263157895,-181.684210526316,4139,3770,91.2526315789474,11,0,1519,1795,469,4,4,4,4,4,4,4,4,4,4,4,4,4,4,4,4
"266",4199,-297.063157894737,4125,-93.9894736842105,-76.5473684210526,3325,-323.842105263158,3878,4127,272.684210526316,-184.757894736842,4134,3762,87.1473684210526,12,0,1519,1799,423,4,4,4,4,4,4,4,4,4,4,4,4,4,4,4,4
"267",4204,-290.4,4122,-85.7789473684211,-72.9578947368421,3329,-314.094736842105,3883,4120,278.315789473684,-189.368421052632,4137,3754,98.4315789473684,13,0,1519,1795,483,4,4,4,4,4,4,4,4,4,4,4,4,4,4,4,4
"268",4204,-291.936842105263,4125,-80.6526315789474,-71.4210526315789,3331,-304.357894736842,3883,4121,277.294736842105,-190.915789473684,4138,3751,102.536842105263,14,0,1515,1795,503,4,4,4,4,4,4,4,4,4,4,4,4,4,4,4,4
"269",4203,-294.505263157895,4133,-79.1157894736842,-68.8631578947368,3325,-301.789473684211,3880,4124,275.757894736842,-187.315789473684,4132,3758,91.2526315789474,15,0,1523,1795,469,4,4,4,4,4,4,4,4,4,4,4,4,4,4,4,4
"270",4202,-292.452631578947,4132,-77.5789473684211,-67.8315789473684,3334,-303.842105263158,3885,4124,283.452631578947,-188.863157894737,4131,3762,83.5578947368421,16,0,1519,1795,0,4,4,4,4,4,4,4,4,4,4,4,4,4,4,4,4
"271",4207,-289.884210526316,4124,-76.5473684210526,-76.0421052631579,3355,-307.947368421053,3893,4124,288.063157894737,-196.042105263158,4137,3759,91.2526315789474,17,0,1519,1795,0,4,4,4,4,4,4,4,4,4,4,4,4,4,4,4,4
"272",4209,-290.4,4118,-77.5789473684211,-86.8105263157895,3359,-314.094736842105,3905,4122,285.494736842105,-197.063157894737,4138,3756,102.536842105263,18,0,1523,1791,0,4,4,4,4,4,4,4,4,4,4,4,4,4,4,4,4
"273",4198,-292.452631578947,4118,-82.7052631578947,-89.8842105263158,3355,-324.357894736842,3909,4121,290.115789473684,-197.063157894737,4138,3746,102.536842105263,19,0,1519,1791,0,4,4,4,4,4,4,4,4,4,4,4,4,4,4,4,4
"274",4200,-292.452631578947,4116,-84.2421052631579,-88.8631578947368,3362,-335.126315789474,3910,4120,304.989473684211,-199.631578947368,4147,3747,107.663157894737,20,0,1523,1787,0,4,4,4,4,4,4,4,4,4,4,4,4,4,4,4,4
"275",4218,-290.4,4120,-81.6842105263158,-95.0105263157895,3366,-339.221052631579,3918,4127,316.778947368421,-196.547368421053,4155,3766,120.484210526316,21,0,1523,1787,0,4,4,4,4,4,4,4,4,4,4,4,4,4,4,4,4
"276",4226,-289.884210526316,4123,-74.5052631578947,-103.726315789474,3356,-336.663157894737,3930,4135,325.494736842105,-196.042105263158,4154,3766,116.894736842105,22,0,1523,1783,0,4,4,4,4,4,4,4,4,4,4,4,4,4,4,4,4
"277",4218,-290.4,4122,-70.9157894736842,-106.810526315789,3353,-336.147368421053,3930,4137,337.294736842105,-198.094736842105,4150,3755,103.557894736842,23,0,1523,1787,0,4,4,4,4,4,4,4,4,4,4,4,4,4,4,4,4
"278",4218,-289.368421052632,4124,-75.0105263157895,-109.884210526316,3360,-340.252631578947,3925,4137,-338.715789473684,-198.6,4156,3757,114.326315789474,24,0,1527,1779,0,4,4,4,4,4,4,4,4,4,4,4,4,4,4,4,4
"279",4218,-293.473684210526,4122,-81.6842105263158,-116.547368421053,3355,341.905263157895,3928,4138,-331.021052631579,-205.778947368421,4166,3753,134.842105263158,25,0,1523,1779,0,4,4,4,4,4,4,4,4,4,4,4,4,4,4,4,4
"280",4207,-302.705263157895,4118,-83.2210526315789,-122.705263157895,3344,334.726315789474,3923,4138,-334.610526315789,-211.936842105263,4168,3746,137.915789473684,26,0,1527,1783,0,4,4,4,4,4,4,4,4,4,4,4,4,4,4,4,4
"281",4198,-308.863157894737,4118,-79.6315789473684,-121.684210526316,3346,335.242105263158,3916,4139,-334.610526315789,-208.347368421053,4170,3755,146.126315789474,27,0,1523,1779,0,4,4,4,4,4,4,4,4,4,4,4,4,4,4,4,4
"282",4201,-313.989473684211,4115,-81.6842105263158,-120.136842105263,3339,335.242105263158,3909,4139,-325.894736842105,-209.884210526316,4170,3759,156.378947368421,28,0,1523,1779,0,4,4,4,4,4,4,4,4,4,4,4,4,4,4,4,4
"283",4198,-322.18947368421,4108,-89.3684210526316,-125.778947368421,3318,323.957894736842,3901,4136,-323.326315789474,-215.010526315789,4168,3750,152.273684210526,29,0,1527,1779,0,4,4,4,4,4,4,4,4,4,4,4,4,4,4,4,4
"284",4186,-328.863157894737,4106,-97.0631578947368,-130.4,3315,318.831578947368,3890,4139,-321.273684210526,-212.957894736842,4173,3751,155.863157894737,30,0,1527,1779,0,4,4,4,4,4,4,4,4,4,4,4,4,4,4,4,4
"285",4183,-327.315789473684,4108,-98.0947368421053,-123.726315789474,3329,322.936842105263,3874,4148,-305.894736842105,-212.452631578947,4191,3753,175.863157894737,31,0,1527,1783,0,4,4,4,4,4,4,4,4,4,4,4,4,4,4,4,4
"286",4185,-325.273684210526,4107,-93.9894736842105,-118.6,3330,319.863157894737,3858,4153,-289.484210526316,-216.042105263158,4203,3750,189.2,32,0,1531,1779,0,4,4,4,4,4,4,4,4,4,4,4,4,4,4,4,4
"287",4176,-328.347368421053,4108,-89.3684210526316,-128.347368421053,3327,321.905263157895,3858,4148,-281.273684210526,-216.042105263158,4203,3748,186.126315789474,33,0,1527,1783,0,4,4,4,4,4,4,4,4,4,4,4,4,4,4,4,4
"288",4170,-324.757894736842,4111,-83.2210526315789,-135.526315789474,3334,332.684210526316,3871,4143,-274.094736842105,-214.505263157895,4201,3753,176.894736842105,34,0,1531,1783,0,4,4,4,4,4,4,4,4,4,4,4,4,4,4,4,4
"289",4178,-313.989473684211,4116,-75.5263157894737,-124.757894736842,3344,330.115789473684,3882,4148,-271.536842105263,-212.957894736842,4202,3765,173.305263157895,35,0,1531,1779,0,4,4,4,4,4,4,4,4,4,4,4,4,4,4,4,4
"290",4187,-305.778947368421,4122,-65.7789473684211,-108.347368421053,3355,324.473684210526,3895,4155,-268.968421052632,-212.452631578947,4209,3769,187.663157894737,36,0,1535,1779,0,4,4,4,4,4,4,4,4,4,4,4,4,4,4,4,4
"291",4194,-298.6,4123,-57.5789473684211,-100.652631578947,3368,333.18947368421,3910,4154,-260.768421052632,-210.4,4212,3764,197.915789473684,37,0,1527,1779,0,4,4,4,4,4,4,4,4,4,4,4,4,4,4,4,4
"292",4203,-289.368421052632,4123,-55.0105263157895,-101.684210526316,3369,341.4,3914,4151,-257.168421052632,-211.421052631579,4203,3752,189.715789473684,38,0,1531,1783,0,4,4,4,4,4,4,4,4,4,4,4,4,4,4,4,4
"293",4199,-289.368421052632,4125,-56.5473684210526,-106.810526315789,3361,336.778947368421,3912,4152,-258.715789473684,-219.631578947368,4197,3745,183.557894736842,39,0,1535,1775,0,4,4,4,4,4,4,4,4,4,4,4,4,4,4,4,4
"294",4193,-290.915789473684,4125,-54.5052631578947,-111.421052631579,3363,338.315789473684,3913,4153,-256.663157894737,-225.778947368421,4199,3745,183.557894736842,40,0,1531,1775,0,4,4,4,4,4,4,4,4,4,4,4,4,4,4,4,4
"295",4196,-284.242105263158,4123,-49.3684210526316,-119.115789473684,3363,-340.768421052632,3911,4151,-257.684210526316,-228.347368421053,4198,3743,178.431578947368,41,0,1535,1775,0,4,4,4,4,4,4,4,4,4,4,4,4,4,4,4,4
"296",4197,-275.526315789474,4127,-38.0947368421053,-121.684210526316,3356,-336.663157894737,3908,4151,-256.663157894737,-227.831578947368,4195,3747,175.863157894737,42,0,1535,1775,0,4,4,4,4,4,4,4,4,4,4,4,4,4,4,4,4
"297",4203,-264.242105263158,4137,-21.6842105263158,-105.778947368421,3367,-336.663157894737,3918,4155,-244.357894736842,-219.115789473684,4202,3763,188.684210526316,43,0,1531,1775,0,4,4,4,4,4,4,4,4,4,4,4,4,4,4,4,4
"298",4213,-257.063157894737,4140,-18.6,-92.4526315789474,3385,-337.168421052632,3929,4161,-243.842105263158,-213.473684210526,4206,3776,203.557894736842,44,0,1531,1779,0,4,4,4,4,4,4,4,4,4,4,4,4,4,4,4,4
"299",4207,-260.136842105263,4135,-24.2421052631579,-102.189473684211,3387,-342.810526315789,3925,4157,-256.147368421053,-223.726315789474,4202,3763,202.536842105263,45,0,1535,1775,0,4,4,4,4,4,4,4,4,4,4,4,4,4,4,4,4
"300",4203,-252.957894736842,4135,-19.1157894736842,-115.526315789474,3392,343.957894736842,3927,4154,-261.789473684211,-229.884210526316,4205,3744,198.936842105263,46,0,1531,1771,0,4,4,4,4,4,4,4,4,4,4,4,4,4,4,4,4
"301",4216,-238.6,4138,-11.4210526315789,-117.063157894737,3412,344.473684210526,3950,4156,-262.810526315789,-224.757894736842,4217,3753,210.736842105263,47,0,1531,1775,0,4,4,4,4,4,4,4,4,4,4,4,4,4,4,4,4
"302",4217,-246.810526315789,4136,-15.0105263157895,-117.063157894737,3415,337.294736842105,3960,4158,-271.536842105263,-225.273684210526,4220,3770,223.042105263158,48,0,1531,1771,0,4,4,4,4,4,4,4,4,4,4,4,4,4,4,4,4
"303",4202,-261.168421052632,4127,-19.1157894736842,-126.810526315789,3403,329.084210526316,3947,4153,-282.305263157895,-228.863157894737,4215,3764,223.557894736842,49,0,1527,1775,0,4,4,4,4,4,4,4,4,4,4,4,4,4,4,4,4
"304",4196,-260.652631578947,4118,-19.1157894736842,-139.631578947368,3399,331.652631578947,3944,4144,-287.947368421053,-229.368421052632,4215,3755,229.715789473684,50,0,1527,1771,0,4,4,4,4,4,4,4,4,4,4,4,4,4,4,4,4
"305",4203,-257.063157894737,4126,-17.0631578947368,-138.6,3401,335.242105263158,3960,4139,-293.073684210526,-228.863157894737,4221,3774,240.484210526316,51,0,1527,1775,0,4,4,4,4,4,4,4,4,4,4,4,4,4,4,4,4
"306",4204,-263.221052631579,4138,-16.0421052631579,-127.315789473684,3396,338.315789473684,3961,4141,-299.736842105263,-227.315789473684,4220,3784,243.042105263158,52,0,1527,1775,0,4,4,4,4,4,4,4,4,4,4,4,4,4,4,4,4
"307",4200,-270.915789473684,4136,-20.1368421052632,-126.810526315789,3389,-344.357894736842,3945,4133,-313.073684210526,-228.347368421053,4208,3768,236.378947368421,53,0,1519,1779,0,4,4,4,4,4,4,4,4,4,4,4,4,4,4,4,4
"308",4197,-267.315789473684,4138,-19.6315789473684,-126.294736842105,3391,-341.273684210526,3948,4122,-325.894736842105,-230.4,4199,3765,234.842105263158,54,0,1523,1775,0,4,4,4,4,4,4,4,4,4,4,4,4,4,4,4,4
"309",4200,-260.136842105263,4152,-15.5263157894737,-120.136842105263,3399,-338.2,3957,4121,-337.168421052632,-227.831578947368,4202,3779,235.863157894737,55,0,1519,1779,0,4,4,4,4,4,4,4,4,4,4,4,4,4,4,4,4
"310",4207,-257.063157894737,4155,-12.4526315789474,-118.094736842105,3405,-331.536842105263,3954,4118,331.652631578947,-226.810526315789,4198,3777,225.610526315789,56,0,1523,1783,0,4,4,4,4,4,4,4,4,4,4,4,4,4,4,4,4
"311",4216,-243.221052631579,4155,-2.18947368421053,-111.421052631579,3409,-320.768421052632,3956,4110,315.757894736842,-227.831578947368,4189,3768,222.021052631579,57,0,1519,1783,0,4,4,4,4,4,4,4,4,4,4,4,4,4,4,4,4
"312",4222,-214.505263157895,4166,14.7263157894737,-96.0421052631579,3422,-306.915789473684,3968,4116,316.778947368421,-224.242105263158,4188,3780,224.073684210526,58,0,1519,1787,0,4,4,4,4,4,4,4,4,4,4,4,4,4,4,4,4
"313",4221,-202.705263157895,4170,18.3157894736842,-89.3684210526316,3429,-301.789473684211,3965,4122,318.315789473684,-223.221052631579,4187,3787,205.094736842105,59,0,1519,1787,0,4,4,4,4,4,4,4,4,4,4,4,4,4,4,4,4
"314",4219,-210.4,4168,7.54736842105263,-93.4736842105263,3417,-307.947368421053,3956,4111,308.063157894737,-225.273684210526,4184,3776,182.536842105263,60,0,1519,1791,0,4,4,4,4,4,4,4,4,4,4,4,4,4,4,4,4
"315",4216,-212.452631578947,4167,1.90526315789474,-92.9578947368421,3411,-308.452631578947,3957,4105,301.4,-225.273684210526,4183,3775,183.042105263158,61,0,1515,1795,0,4,4,4,4,4,4,4,4,4,4,4,4,4,4,4,4
"316",4209,-208.863157894737,4157,-0.136842105263158,-94.5052631578947,3417,-305.894736842105,3951,4109,302.421052631579,-226.294736842105,4176,3773,181.505263157895,62,0,1515,1803,0,4,4,4,4,4,4,4,4,4,4,4,4,4,4,4,4
"317",4202,-208.863157894737,4147,-7.83157894736842,-102.189473684211,3410,-315.126315789474,3944,4106,300.884210526316,-229.884210526316,4163,3756,171.757894736842,63,0,1515,1795,0,4,4,4,4,4,4,4,4,4,4,4,4,4,4,4,4
"318",4190,-216.042105263158,4146,-17.5789473684211,-106.810526315789,3393,-322.810526315789,3940,4106,302.936842105263,-230.4,4154,3754,165.094736842105,64,0,1511,1803,413,4,4,4,4,4,4,4,4,4,4,4,4,4,4,4,4
"319",4181,-223.221052631579,4145,-24.7578947368421,-104.242105263158,3392,-320.252631578947,3932,4116,307.547368421053,-228.347368421053,4152,3769,158.936842105263,65,0,1515,1803,485,4,4,4,4,4,4,4,4,4,4,4,4,4,4,4,4
"320",4185,-228.863157894737,4146,-30.4,-102.705263157895,3390,-320.252631578947,3926,4121,307.042105263158,-228.863157894737,4146,3771,152.789473684211,66,0,1511,1799,481,4,4,4,4,4,4,4,4,4,4,4,4,4,4,4,4
"321",4184,-231.421052631579,4146,-33.4736842105263,-108.347368421053,3371,-325.378947368421,3924,4118,300.884210526316,-228.347368421053,4133,3767,146.631578947368,67,0,1511,1803,516,4,4,4,4,4,4,4,4,4,4,4,4,4,4,4,4
"322",4168,-232.957894736842,4144,-35.0105263157895,-112.957894736842,3356,-327.431578947368,3914,4119,301.4,-226.294736842105,4133,3771,146.126315789474,68,0,1511,1803,507,4,4,4,4,4,4,4,4,4,4,4,4,4,4,4,4
"323",4168,-228.863157894737,4147,-28.8631578947368,-109.368421052632,3356,-325.378947368421,3909,4123,314.726315789474,-227.315789473684,4151,3771,164.073684210526,69,0,1507,1803,441,4,4,4,4,4,4,4,4,4,4,4,4,4,4,4,4
"324",4186,-222.705263157895,4153,-15.0105263157895,-102.189473684211,3355,-324.357894736842,3915,4128,323.452631578947,-227.315789473684,4159,3770,179.452631578947,70,0,1511,1803,465,4,4,4,4,4,4,4,4,4,4,4,4,4,4,4,4
"325",4186,-228.863157894737,4153,-14.5052631578947,-102.189473684211,3342,-331.021052631579,3911,4134,321.4,-223.726315789474,4154,3776,171.757894736842,71,0,1511,1799,452,4,4,4,4,4,4,4,4,4,4,4,4,4,4,4,4
"326",4168,-240.652631578947,4145,-29.8842105263158,-111.936842105263,3328,-338.715789473684,3898,4131,320.368421052632,-223.221052631579,4152,3777,164.073684210526,72,0,1511,1803,428,4,4,4,4,4,4,4,4,4,4,4,4,4,4,4,4
"327",4153,-247.315789473684,4139,-39.6315789473684,-119.631578947368,3318,-338.715789473684,3889,4125,315.242105263158,-226.810526315789,4149,3772,169.2,73,0,1515,1799,466,4,4,4,4,4,4,4,4,4,4,4,4,4,4,4,4
"328",4146,-251.421052631579,4137,-40.1368421052632,-117.063157894737,3311,-335.631578947368,3881,4132,308.578947368421,-227.315789473684,4145,3778,169.715789473684,74,0,1511,1799,504,4,4,4,4,4,4,4,4,4,4,4,4,4,4,4,4
"329",4139,-258.094736842105,4142,-44.2421052631579,-109.368421052632,3312,-329.484210526316,3879,4139,315.242105263158,-224.242105263158,4152,3788,172.273684210526,75,0,1515,1799,469,4,4,4,4,4,4,4,4,4,4,4,4,4,4,4,4
"330",4145,-261.168421052632,4148,-47.8315789473684,-104.757894736842,3313,-326.4,3878,4137,324.473684210526,-224.757894736842,4154,3787,180.484210526316,76,0,1511,1795,423,4,4,4,4,4,4,4,4,4,4,4,4,4,4,4,4
"331",4167,-253.473684210526,4151,-43.7263157894737,-99.6315789473684,3313,-326.4,3876,4138,323.957894736842,-225.778947368421,4154,3784,185.610526315789,77,0,1515,1803,483,4,4,4,4,4,4,4,4,4,4,4,4,4,4,4,4
"332",4189,-243.221052631579,4153,-33.4736842105263,-95.0105263157895,3324,-315.126315789474,3888,4141,324.473684210526,-221.168421052632,4166,3784,194.842105263158,78,0,1519,1795,504,4,4,4,4,4,4,4,4,4,4,4,4,4,4,4,4
"333",4196,-242.189473684211,4159,-30.4,-97.0631578947368,3333,-302.305263157895,3899,4140,321.905263157895,-215.010526315789,4168,3788,199.968421052632,79,0,1519,1795,469,4,4,4,4,4,4,4,4,4,4,4,4,4,4,4,4
"334",4192,-246.294736842105,4167,-35.0105263157895,-97.5789473684211,3333,-304.357894736842,3897,4141,315.242105263158,-211.936842105263,4155,3790,188.168421052632,80,0,1519,1795,423,4,4,4,4,4,4,4,4,4,4,4,4,4,4,4,4
"335",4188,-243.726315789474,4169,-27.8315789473684,-90.9157894736842,3341,-308.452631578947,3903,4143,323.957894736842,-215.526315789474,4161,3792,189.715789473684,81,0,1523,1791,483,4,4,4,4,4,4,4,4,4,4,4,4,4,4,4,4
"336",4185,-238.6,4167,-16.5473684210526,-84.7578947368421,3344,-310.505263157895,3915,4143,343.957894736842,-223.726315789474,4177,3787,213.305263157895,82,0,1527,1787,504,4,4,4,4,4,4,4,4,4,4,4,4,4,4,4,4
"337",4184,-241.168421052632,4168,-17.5789473684211,-86.8105263157895,3340,-314.094736842105,3912,4137,-333.578947368421,-227.831578947368,4183,3770,223.042105263158,83,0,1523,1787,469,4,4,4,4,4,4,4,4,4,4,4,4,4,4,4,4
"338",4187,-242.189473684211,4171,-21.1684210526316,-85.7789473684211,3346,-311.536842105263,3911,4140,-322.305263157895,-225.778947368421,4186,3773,219.452631578947,84,0,1535,1787,423,4,4,4,4,4,4,4,4,4,4,4,4,4,4,4,4
"339",4189,-239.115789473684,4172,-17.0631578947368,-81.1684210526316,3353,-307.947368421053,3925,4152,-307.947368421053,-224.757894736842,4187,3790,220.989473684211,85,0,1531,1779,483,4,4,4,4,4,4,4,4,4,4,4,4,4,4,4,4
"340",4188,-240.136842105263,4169,-15.5263157894737,-91.4210526315789,3341,-308.452631578947,3924,4156,-301.273684210526,-226.810526315789,4176,3776,212.273684210526,86,0,1535,1783,504,4,4,4,4,4,4,4,4,4,4,4,4,4,4,4,4
"341",4181,-244.242105263158,4166,-17.5789473684211,-110.4,3331,-309.484210526316,3912,4151,-307.947368421053,-231.936842105263,4167,3759,201.505263157895,87,0,1539,1779,469,4,4,4,4,4,4,4,4,4,4,4,4,4,4,4,4
"342",4174,-242.189473684211,4167,-15.0105263157895,-114.505263157895,3334,-313.073684210526,3908,4152,-315.631578947368,-240.136842105263,4161,3771,199.968421052632,88,0,1539,1779,423,4,4,4,4,4,4,4,4,4,4,4,4,4,4,4,4
"343",4164,-247.315789473684,4167,-20.1368421052632,-120.136842105263,3324,-325.378947368421,3903,4153,-317.168421052632,-243.726315789474,4148,3765,194.326315789474,89,0,1543,1775,483,4,4,4,4,4,4,4,4,4,4,4,4,4,4,4,4
"344",4154,-259.115789473684,4165,-25.7789473684211,-133.989473684211,3309,-336.147368421053,3892,4150,-318.2,-243.221052631579,4136,3752,178.431578947368,90,0,1543,1775,504,4,4,4,4,4,4,4,4,4,4,4,4,4,4,4,4
"345",4159,-254.505263157895,4166,-22.7052631578947,-137.578947368421,3313,-339.221052631579,3892,4151,-323.842105263158,-245.273684210526,4132,3763,166.126315789474,91,0,1547,1771,469,4,4,4,4,4,4,4,4,4,4,4,4,4,4,4,4
"346",4168,-243.726315789474,4168,-17.0631578947368,-132.957894736842,3327,-340.252631578947,3903,4154,-320.768421052632,-248.347368421053,4132,3763,173.810526315789,92,0,1547,1771,423,4,4,4,4,4,4,4,4,4,4,4,4,4,4,4,4
"347",4167,-243.726315789474,4169,-9.36842105263158,-131.936842105263,3339,-342.810526315789,3912,4155,-305.894736842105,-247.315789473684,4142,3756,199.968421052632,93,0,1555,1771,483,4,4,4,4,4,4,4,4,4,4,4,4,4,4,4,4
"348",4165,-237.578947368421,4171,5.49473684210526,-132.452631578947,3352,-344.357894736842,3919,4157,-299.221052631579,-246.294736842105,4152,3768,212.273684210526,94,0,1551,1771,504,4,4,4,4,4,4,4,4,4,4,4,4,4,4,4,4
"349",4174,-228.347368421053,4173,16.2736842105263,-136.042105263158,3355,-340.768421052632,3927,4156,-306.4,-246.810526315789,4149,3770,199.968421052632,95,0,1555,1771,469,4,4,4,4,4,4,4,4,4,4,4,4,4,4,4,4
"350",4184,-226.294736842105,4173,16.2736842105263,-138.6,3355,-338.715789473684,3938,4154,-304.357894736842,-246.810526315789,4152,3766,205.610526315789,96,0,1555,1771,423,4,4,4,4,4,4,4,4,4,4,4,4,4,4,4,4
"351",4192,-219.115789473684,4169,19.8631578947368,-129.884210526316,3367,-333.073684210526,3947,4158,-293.073684210526,-241.684210526316,4165,3783,231.757894736842,97,0,1559,1771,483,4,4,4,4,4,4,4,4,4,4,4,4,4,4,4,4
"352",4201,-209.368421052632,4163,28.0631578947368,-119.631578947368,3377,-323.326315789474,3945,4160,-286.4,-238.094736842105,4175,3793,247.147368421053,98,0,1563,1767,504,4,4,4,4,4,4,4,4,4,4,4,4,4,4,4,4
"353",4209,-209.884210526316,4162,30.1157894736842,-120.652631578947,3378,-320.252631578947,3948,4156,-280.768421052632,-240.136842105263,4186,3784,260.989473684211,99,0,1563,1767,469,4,4,4,4,4,4,4,4,4,4,4,4,4,4,4,4
"354",4219,-205.778947368421,4169,29.6,-127.315789473684,3381,-318.2,3953,4156,-274.094736842105,-241.168421052632,4203,3784,278.431578947368,100,0,1563,1767,423,4,4,4,4,4,4,4,4,4,4,4,4,4,4,4,4
"355",4221,-196.547368421053,4168,29.6,-126.810526315789,3382,-320.768421052632,3948,4154,-275.631578947368,-238.6,4202,3791,280.989473684211,101,0,1563,1767,483,4,4,4,4,4,4,4,4,4,4,4,4,4,4,4,4
"356",4219,-194.505263157895,4158,30.1157894736842,-123.221052631579,3381,-333.073684210526,3944,4152,-274.610526315789,-239.115789473684,4190,3792,274.326315789474,102,0,1567,1767,504,4,4,4,4,4,4,4,4,4,4,4,4,4,4,4,4
"357",4220,-199.631578947368,4153,26.5263157894737,-127.315789473684,3372,-340.252631578947,3950,4154,-262.810526315789,-242.705263157895,4190,3793,271.757894736842,103,0,1563,1767,469,4,4,4,4,4,4,4,4,4,4,4,4,4,4,4,4
"358",4214,-211.421052631579,4154,18.3157894736842,-137.063157894737,3354,-339.221052631579,3946,4150,-257.684210526316,-245.778947368421,4190,3782,270.221052631579,104,0,1567,1767,423,4,4,4,4,4,4,4,4,4,4,4,4,4,4,4,4
"359",4207,-216.547368421053,4152,12.6842105263158,-137.063157894737,3347,-340.252631578947,3938,4144,-255.631578947368,-245.778947368421,4186,3770,270.221052631579,105,0,1567,1767,483,4,4,4,4,4,4,4,4,4,4,4,4,4,4,4,4
"360",4211,-212.452631578947,4160,15.2421052631579,-123.726315789474,3356,-329.989473684211,3941,4151,-244.357894736842,-238.6,4190,3787,272.789473684211,106,0,1567,1767,504,4,4,4,4,4,4,4,4,4,4,4,4,4,4,4,4
"361",4209,-217.063157894737,4170,16.7789473684211,-116.042105263158,3353,-321.273684210526,3938,4154,-241.273684210526,-237.063157894737,4189,3802,265.610526315789,107,0,1567,1767,469,4,4,4,4,4,4,4,4,4,4,4,4,4,4,4,4
"362",4192,-238.094736842105,4163,1.90526315789474,-130.4,3328,-335.631578947368,3915,4142,-258.715789473684,-244.242105263158,4162,3787,240.989473684211,108,0,1567,1771,423,4,4,4,4,4,4,4,4,4,4,4,4,4,4,4,4
"363",4181,-256.042105263158,4154,-16.0421052631579,-146.810526315789,3305,344.473684210526,3892,4133,-273.073684210526,-246.810526315789,4136,3775,217.915789473684,109,0,1567,1767,483,4,4,4,4,4,4,4,4,4,4,4,4,4,4,4,4
"364",4184,-258.6,4157,-15.0105263157895,-151.421052631579,3299,-337.168421052632,3888,4139,-274.094736842105,-244.242105263158,4133,3773,213.305263157895,110,0,1567,1767,504,4,4,4,4,4,4,4,4,4,4,4,4,4,4,4,4
"365",4184,-260.652631578947,4157,-11.4210526315789,-160.136842105263,3289,-341.273684210526,3887,4143,-285.378947368421,-245.273684210526,4127,3768,209.715789473684,111,0,1563,1771,469,4,4,4,4,4,4,4,4,4,4,4,4,4,4,4,4
"366",4172,-277.063157894737,4152,-22.7052631578947,-166.810526315789,3272,332.684210526316,3873,4137,-302.305263157895,-245.778947368421,4102,3773,185.610526315789,112,0,1567,1767,423,4,4,4,4,4,4,4,4,4,4,4,4,4,4,4,4
"367",4165,-292.957894736842,4150,-35.5263157894737,-157.578947368421,3259,332.168421052632,3861,4138,-311.021052631579,-242.705263157895,4086,3778,166.126315789474,113,0,1563,1767,483,4,4,4,4,4,4,4,4,4,4,4,4,4,4,4,4
"368",4172,-291.936842105263,4157,-41.1684210526316,-151.421052631579,3255,338.831578947368,3859,4149,-319.736842105263,-243.726315789474,4088,3768,163.042105263158,114,0,1567,1767,504,4,4,4,4,4,4,4,4,4,4,4,4,4,4,4,4
"369",4185,-288.347368421053,4168,-41.6842105263158,-153.989473684211,3253,340.368421052632,3861,4155,-323.842105263158,-244.242105263158,4088,3773,168.168421052632,115,0,1563,1767,469,4,4,4,4,4,4,4,4,4,4,4,4,4,4,4,4
"370",4184,-289.884210526316,4166,-35.5263157894737,-156.042105263158,3254,341.4,3860,4154,-314.094736842105,-242.189473684211,4093,3787,181.505263157895,116,0,1559,1771,423,4,4,4,4,4,4,4,4,4,4,4,4,4,4,4,4
"371",4170,-292.957894736842,4153,-36.5473684210526,-161.168421052632,3252,338.831578947368,3851,4154,-305.378947368421,-242.705263157895,4103,3775,187.147368421053,117,0,1563,1763,483,4,4,4,4,4,4,4,4,4,4,4,4,4,4,4,4
"372",4164,-296.042105263158,4154,-44.7578947368421,-166.294736842105,3247,333.705263157895,3848,4154,-302.810526315789,-243.726315789474,4105,3766,186.631578947368,118,0,1563,1767,504,4,4,4,4,4,4,4,4,4,4,4,4,4,4,4,4
"373",4172,-290.4,4167,-41.1684210526316,-162.189473684211,3249,341.905263157895,3856,4159,-295.631578947368,-242.705263157895,4105,3777,194.842105263158,119,0,1563,1767,469,4,4,4,4,4,4,4,4,4,4,4,4,4,4,4,4
"374",4183,-277.578947368421,4171,-31.9368421052632,-152.957894736842,3262,-335.631578947368,3861,4168,-285.894736842105,-240.652631578947,4116,3779,209.715789473684,120,0,1559,1767,423,4,4,4,4,4,4,4,4,4,4,4,4,4,4,4,4
"375",4183,-273.473684210526,4169,-32.9578947368421,-152.452631578947,3265,-341.789473684211,3859,4170,-276.663157894737,-240.652631578947,4128,3776,219.968421052632,121,0,1559,1763,483,4,4,4,4,4,4,4,4,4,4,4,4,4,4,4,4
"376",4182,-273.989473684211,4171,-35.0105263157895,-161.168421052632,3256,334.726315789474,3859,4165,-275.126315789474,-241.684210526316,4122,3783,216.894736842105,122,0,1555,1767,504,4,4,4,4,4,4,4,4,4,4,4,4,4,4,4,4
"377",4187,-265.273684210526,4170,-28.3473684210526,-166.810526315789,3258,332.168421052632,3858,4162,-278.715789473684,-240.652631578947,4119,3775,215.347368421053,123,0,1559,1767,469,4,4,4,4,4,4,4,4,4,4,4,4,4,4,4,4
"378",4192,-252.452631578947,4169,-17.5789473684211,-167.831578947368,3277,336.273684210526,3872,4163,-267.431578947368,-240.652631578947,4139,3766,239.452631578947,124,0,1555,1763,423,4,4,4,4,4,4,4,4,4,4,4,4,4,4,4,4
"379",4190,-246.294736842105,4171,-5.77894736842105,-164.757894736842,3288,338.315789473684,3896,4168,-245.378947368421,-241.684210526316,4165,3779,269.2,125,0,1555,1767,483,4,4,4,4,4,4,4,4,4,4,4,4,4,4,4,4
"380",4188,-244.757894736842,4171,2.42105263157895,-155.010526315789,3291,337.810526315789,3902,4172,-231.536842105263,-235.526315789474,4172,3789,276.378947368421,126,0,1555,1767,504,4,4,4,4,4,4,4,4,4,4,4,4,4,4,4,4
"381",4190,-241.684210526316,4169,0.368421052631579,-145.778947368421,3301,334.221052631579,3897,4170,-225.894736842105,-229.368421052632,4171,3778,277.4,127,0,1555,1767,469,4,4,4,4,4,4,4,4,4,4,4,4,4,4,4,4
"382",4188,-247.831578947368,4171,-11.9368421052632,-149.368421052632,3304,335.242105263158,3894,4170,-225.894736842105,-230.4,4171,3773,277.4,128,0,1551,1767,423,4,4,4,4,4,4,4,4,4,4,4,4,4,4,4,4
"383",4176,-263.221052631579,4170,-27.3157894736842,-158.094736842105,3299,332.168421052632,3885,4175,-226.915789473684,-231.936842105263,4163,3769,268.684210526316,0,0,1551,1771,413,4,4,4,4,4,4,4,4,4,4,4,4,4,4,4,4
"384",4168,-266.810526315789,4168,-35.0105263157895,-165.778947368421,3292,324.989473684211,3876,4179,-228.452631578947,-234.505263157895,4153,3755,255.347368421053,1,0,1555,1763,485,4,4,4,4,4,4,4,4,4,4,4,4,4,4,4,4
"385",4167,-261.168421052632,4168,-34.5052631578947,-175.526315789474,3291,326.526315789474,3877,4174,-224.863157894737,-241.684210526316,4152,3754,251.252631578947,2,0,1547,1767,481,4,4,4,4,4,4,4,4,4,4,4,4,4,4,4,4
"386",4159,-269.884210526316,4167,-39.1157894736842,-184.242105263158,3289,330.631578947368,3885,4168,-219.221052631579,-245.273684210526,4156,3766,259.452631578947,3,0,1555,1767,516,4,4,4,4,4,4,4,4,4,4,4,4,4,4,4,4
"387",4149,-276.042105263158,4168,-47.3157894736842,-185.778947368421,3286,322.936842105263,3891,4175,-221.273684210526,-238.6,4154,3769,260.484210526316,4,0,1551,1763,507,4,4,4,4,4,4,4,4,4,4,4,4,4,4,4,4
"388",4155,-263.221052631579,4177,-37.5789473684211,-177.578947368421,3288,322.936842105263,3897,4184,-222.305263157895,-229.368421052632,4150,3769,252.789473684211,5,0,1551,1767,441,4,4,4,4,4,4,4,4,4,4,4,4,4,4,4,4
"389",4175,-245.778947368421,4189,-14.5052631578947,-164.757894736842,3302,344.473684210526,3909,4186,-214.094736842105,-226.810526315789,4157,3769,263.042105263158,6,0,1551,1763,465,4,4,4,4,4,4,4,4,4,4,4,4,4,4,4,4
"390",4187,-237.578947368421,4195,-0.136842105263158,-152.957894736842,3310,-331.536842105263,3918,4186,-208.968421052632,-227.831578947368,4169,3772,285.610526315789,7,0,1555,1763,449,4,4,4,4,4,4,4,4,4,4,4,4,4,4,4,4
"391",4188,-237.063157894737,4198,-0.136842105263158,-139.631578947368,3307,-334.094736842105,3915,4186,-211.536842105263,-225.778947368421,4175,3783,291.252631578947,8,0,1547,1763,428,4,4,4,4,4,4,4,4,4,4,4,4,4,4,4,4
"392",4185,-238.6,4202,-5.77894736842105,-129.884210526316,3302,-338.715789473684,3910,4186,-213.578947368421,-222.705263157895,4169,3791,283.042105263158,9,0,1551,1767,466,4,4,4,4,4,4,4,4,4,4,4,4,4,4,4,4
"393",4178,-245.778947368421,4199,-17.5789473684211,-137.063157894737,3293,342.936842105263,3905,4185,-224.863157894737,-224.242105263158,4154,3784,271.757894736842,10,0,1551,1759,504,4,4,4,4,4,4,4,4,4,4,4,4,4,4,4,4
"394",4167,-257.063157894737,4190,-30.9157894736842,-149.368421052632,3283,332.684210526316,3897,4181,-242.305263157895,-226.810526315789,4143,3778,266.126315789474,11,0,1547,1763,469,4,4,4,4,4,4,4,4,4,4,4,4,4,4,4,4
"395",4157,-264.242105263158,4185,-36.0421052631579,-151.936842105263,3269,332.684210526316,3888,4179,-257.684210526316,-226.810526315789,4136,3781,264.073684210526,12,0,1551,1763,423,4,4,4,4,4,4,4,4,4,4,4,4,4,4,4,4
"396",4156,-262.705263157895,4187,-33.4736842105263,-158.6,3263,338.831578947368,3885,4181,-268.968421052632,-226.810526315789,4132,3773,263.042105263158,13,0,1547,1759,483,4,4,4,4,4,4,4,4,4,4,4,4,4,4,4,4
"397",4158,-262.705263157895,4186,-35.0105263157895,-167.315789473684,3264,333.18947368421,3891,4184,-275.126315789474,-228.863157894737,4135,3762,269.2,14,0,1547,1763,504,4,4,4,4,4,4,4,4,4,4,4,4,4,4,4,4
"398",4156,-261.684210526316,4182,-43.7263157894737,-168.347368421053,3256,321.4,3896,4181,-280.252631578947,-230.4,4136,3772,270.736842105263,15,0,1547,1759,469,4,4,4,4,4,4,4,4,4,4,4,4,4,4,4,4
"399",4150,-263.221052631579,4182,-48.3473684210526,-174.505263157895,3250,317.810526315789,3896,4173,-293.578947368421,-226.810526315789,4128,3790,261.505263157895,16,0,1551,1763,0,4,4,4,4,4,4,4,4,4,4,4,4,4,4,4,4
"400",4145,-270.915789473684,4184,-49.8842105263158,-181.684210526316,3251,319.347368421053,3902,4173,-303.326315789474,-223.726315789474,4126,3788,265.610526315789,17,0,1551,1763,0,4,4,4,4,4,4,4,4,4,4,4,4,4,4,4,4
"401",4142,-268.863157894737,4184,-46.2947368421053,-175.526315789474,3254,323.452631578947,3915,4175,-298.2,-223.726315789474,4137,3784,286.126315789474,18,0,1555,1767,0,4,4,4,4,4,4,4,4,4,4,4,4,4,4,4,4
"402",4140,-267.831578947368,4185,-35.0105263157895,-172.957894736842,3254,330.631578947368,3918,4171,-295.631578947368,-224.242105263158,4136,3784,283.557894736842,19,0,1555,1767,0,4,4,4,4,4,4,4,4,4,4,4,4,4,4,4,4
"403",4138,-271.421052631579,4186,-31.4210526315789,-182.705263157895,3253,334.726315789474,3913,4167,-303.842105263158,-225.778947368421,4120,3775,263.042105263158,20,0,1555,1767,0,4,4,4,4,4,4,4,4,4,4,4,4,4,4,4,4
"404",4138,-264.242105263158,4186,-35.5263157894737,-184.242105263158,3251,332.684210526316,3912,4167,-312.042105263158,-226.810526315789,4112,3779,258.936842105263,21,0,1555,1771,0,4,4,4,4,4,4,4,4,4,4,4,4,4,4,4,4
"405",4142,-255.010526315789,4187,-32.9578947368421,-174.505263157895,3260,333.705263157895,3913,4168,-315.126315789474,-226.294736842105,4108,3787,260.484210526316,22,0,1563,1767,0,4,4,4,4,4,4,4,4,4,4,4,4,4,4,4,4
"406",4143,-256.042105263158,4192,-29.3684210526316,-171.936842105263,3267,334.726315789474,3908,4171,-320.768421052632,-227.831578947368,4101,3777,250.736842105263,23,0,1555,1771,0,4,4,4,4,4,4,4,4,4,4,4,4,4,4,4,4
"407",4138,-261.684210526316,4195,-33.4736842105263,-180.652631578947,3258,332.168421052632,3899,4172,-331.021052631579,-229.368421052632,4089,3774,240.989473684211,24,0,1563,1771,0,4,4,4,4,4,4,4,4,4,4,4,4,4,4,4,4
"408",4135,-269.884210526316,4193,-40.6526315789474,-180.136842105263,3250,336.778947368421,3895,4173,-344.863157894737,-227.315789473684,4074,3782,233.305263157895,25,0,1563,1763,0,4,4,4,4,4,4,4,4,4,4,4,4,4,4,4,4
"409",4136,-279.631578947368,4187,-47.3157894736842,-167.831578947368,3249,342.936842105263,3887,4175,331.136842105263,-225.273684210526,4061,3777,220.989473684211,26,0,1563,1771,0,4,4,4,4,4,4,4,4,4,4,4,4,4,4,4,4
"410",4135,-278.6,4186,-52.4526315789474,-165.273684210526,3248,342.936842105263,3881,4173,321.905263157895,-224.757894736842,4056,3774,210.736842105263,27,0,1567,1767,0,4,4,4,4,4,4,4,4,4,4,4,4,4,4,4,4
"411",4135,-275.010526315789,4192,-50.4,-170.4,3248,-343.842105263158,3890,4171,312.168421052632,-224.242105263158,4057,3778,211.757894736842,28,0,1567,1767,0,4,4,4,4,4,4,4,4,4,4,4,4,4,4,4,4
"412",4144,-275.010526315789,4201,-46.8105263157895,-163.726315789474,3252,-337.168421052632,3900,4172,305.494736842105,-224.757894736842,4058,3768,214.326315789474,29,0,1567,1763,0,4,4,4,4,4,4,4,4,4,4,4,4,4,4,4,4
"413",4152,-274.505263157895,4204,-51.4210526315789,-156.042105263158,3253,-337.168421052632,3892,4171,298.315789473684,-227.831578947368,4055,3758,209.715789473684,30,0,1567,1767,0,4,4,4,4,4,4,4,4,4,4,4,4,4,4,4,4
"414",4152,-273.989473684211,4201,-56.5473684210526,-160.652631578947,3251,-339.736842105263,3882,4170,289.084210526316,-231.421052631579,4049,3766,207.147368421053,31,0,1571,1759,0,4,4,4,4,4,4,4,4,4,4,4,4,4,4,4,4
"415",4151,-276.042105263158,4208,-52.9578947368421,-166.294736842105,3251,-339.221052631579,3877,4170,284.989473684211,-231.421052631579,4048,3772,208.684210526316,32,0,1563,1759,0,4,4,4,4,4,4,4,4,4,4,4,4,4,4,4,4
"416",4153,-271.421052631579,4214,-49.3684210526316,-161.684210526316,3252,-337.168421052632,3876,4172,287.547368421053,-230.4,4059,3770,223.557894736842,33,0,1571,1763,0,4,4,4,4,4,4,4,4,4,4,4,4,4,4,4,4
"417",4151,-262.705263157895,4207,-46.8105263157895,-160.652631578947,3259,-341.273684210526,3876,4174,289.6,-231.421052631579,4076,3771,249.715789473684,34,0,1567,1755,0,4,4,4,4,4,4,4,4,4,4,4,4,4,4,4,4
"418",4150,-258.6,4201,-35.0105263157895,-167.315789473684,3266,339.347368421053,3873,4171,271.136842105263,-231.421052631579,4088,3766,266.126315789474,35,0,1563,1755,0,4,4,4,4,4,4,4,4,4,4,4,4,4,4,4,4
"419",4155,-260.136842105263,4203,-22.7052631578947,-166.294736842105,3268,334.726315789474,3877,4168,236.273684210526,-230.4,4091,3757,272.789473684211,36,0,1567,1751,0,4,4,4,4,4,4,4,4,4,4,4,4,4,4,4,4
"420",4155,-260.652631578947,4205,-24.7578947368421,-163.221052631579,3266,336.273684210526,3894,4168,215.757894736842,-232.957894736842,4098,3756,286.126315789474,37,0,1567,1751,0,4,4,4,4,4,4,4,4,4,4,4,4,4,4,4,4
"421",4153,-259.631578947368,4202,-30.4,-171.421052631579,3268,330.115789473684,3902,4167,221.905263157895,-237.063157894737,4107,3757,295.347368421053,38,0,1563,1751,0,4,4,4,4,4,4,4,4,4,4,4,4,4,4,4,4
"422",4155,-257.578947368421,4202,-29.3684210526316,-180.136842105263,3276,326.526315789474,3897,4167,231.136842105263,-239.631578947368,4112,3752,288.684210526316,39,0,1563,1751,0,4,4,4,4,4,4,4,4,4,4,4,4,4,4,4,4
"423",4151,-257.578947368421,4205,-33.4736842105263,-181.168421052632,3280,333.18947368421,3897,4167,231.652631578947,-236.547368421053,4115,3752,287.663157894737,40,0,1567,1751,0,4,4,4,4,4,4,4,4,4,4,4,4,4,4,4,4
"424",4137,-261.684210526316,4203,-40.1368421052632,-179.631578947368,3282,336.778947368421,3896,4167,231.652631578947,-233.989473684211,4116,3753,292.273684210526,41,0,1559,1751,0,4,4,4,4,4,4,4,4,4,4,4,4,4,4,4,4
"425",4132,-262.705263157895,4202,-36.0421052631579,-180.136842105263,3288,334.221052631579,3894,4167,238.315789473684,-233.989473684211,4114,3746,288.684210526316,42,0,1567,1747,0,4,4,4,4,4,4,4,4,4,4,4,4,4,4,4,4
"426",4138,-264.757894736842,4207,-34.5052631578947,-181.168421052632,3291,331.136842105263,3895,4167,242.936842105263,-232.957894736842,4110,3746,274.842105263158,43,0,1563,1743,0,4,4,4,4,4,4,4,4,4,4,4,4,4,4,4,4
"427",4145,-266.810526315789,4216,-41.6842105263158,-173.473684210526,3290,333.18947368421,3896,4169,244.989473684211,-229.368421052632,4106,3753,262.021052631579,44,0,1563,1747,0,4,4,4,4,4,4,4,4,4,4,4,4,4,4,4,4
"428",4151,-261.168421052632,4219,-38.0947368421053,-159.631578947368,3297,342.421052631579,3897,4174,252.684210526316,-226.810526315789,4103,3750,257.915789473684,45,0,1563,1743,0,4,4,4,4,4,4,4,4,4,4,4,4,4,4,4,4
"429",4155,-255.526315789474,4216,-29.3684210526316,-158.094736842105,3301,-339.221052631579,3899,4174,259.347368421053,-227.831578947368,4104,3742,254.326315789474,46,0,1563,1743,0,4,4,4,4,4,4,4,4,4,4,4,4,4,4,4,4
"430",4151,-258.094736842105,4208,-32.9578947368421,-160.136842105263,3296,-338.715789473684,3897,4176,256.273684210526,-229.368421052632,4104,3737,252.789473684211,47,0,1555,1743,0,4,4,4,4,4,4,4,4,4,4,4,4,4,4,4,4
"431",4150,-260.136842105263,4192,-31.9368421052632,-157.063157894737,3296,-342.810526315789,3903,4182,255.757894736842,-231.421052631579,4103,3728,256.894736842105,48,0,1555,1747,0,4,4,4,4,4,4,4,4,4,4,4,4,4,4,4,4
"432",4153,-252.452631578947,4184,-20.1368421052632,-161.168421052632,3299,341.4,3912,4185,257.810526315789,-231.421052631579,4103,3725,257.4,49,0,1563,1739,0,4,4,4,4,4,4,4,4,4,4,4,4,4,4,4,4
"433",4155,-245.273684210526,4186,-12.4526315789474,-166.294736842105,3301,337.294736842105,3913,4185,259.863157894737,-228.863157894737,4103,3735,256.894736842105,50,0,1551,1743,0,4,4,4,4,4,4,4,4,4,4,4,4,4,4,4,4
"434",4158,-245.273684210526,4186,-8.86315789473684,-158.094736842105,3304,335.757894736842,3913,4185,267.547368421053,-227.831578947368,4106,3738,266.126315789474,51,0,1555,1743,0,4,4,4,4,4,4,4,4,4,4,4,4,4,4,4,4
"435",4167,-245.778947368421,4183,-8.34736842105263,-148.347368421053,3300,333.705263157895,3915,4188,274.221052631579,-224.242105263158,4109,3735,273.810526315789,52,0,1555,1743,0,4,4,4,4,4,4,4,4,4,4,4,4,4,4,4,4
"436",4171,-243.221052631579,4183,-11.4210526315789,-147.831578947368,3298,334.221052631579,3912,4197,276.273684210526,-215.526315789474,4111,3744,272.789473684211,53,0,1551,1743,0,4,4,4,4,4,4,4,4,4,4,4,4,4,4,4,4
"437",4168,-242.189473684211,4187,-13.9894736842105,-152.452631578947,3297,331.652631578947,3903,4201,276.273684210526,-211.421052631579,4112,3749,271.757894736842,54,0,1551,1743,0,4,4,4,4,4,4,4,4,4,4,4,4,4,4,4,4
"438",4165,-244.757894736842,4185,-13.9894736842105,-161.684210526316,3288,320.368421052632,3896,4190,275.242105263158,-216.547368421053,4115,3741,276.894736842105,55,0,1551,1743,0,4,4,4,4,4,4,4,4,4,4,4,4,4,4,4,4
"439",4166,-244.242105263158,4184,-10.4,-166.294736842105,3281,316.273684210526,3888,4185,276.273684210526,-217.063157894737,4118,3735,280.989473684211,56,0,1547,1743,0,4,4,4,4,4,4,4,4,4,4,4,4,4,4,4,4
"440",4168,-242.705263157895,4185,-7.83157894736842,-163.221052631579,3281,322.421052631579,3882,4190,278.315789473684,-212.452631578947,4118,3737,284.073684210526,57,0,1547,1743,0,4,4,4,4,4,4,4,4,4,4,4,4,4,4,4,4
"441",4169,-244.242105263158,4185,-11.9368421052632,-159.631578947368,3274,324.473684210526,3880,4188,269.6,-211.936842105263,4113,3741,281.505263157895,58,0,1547,1747,0,4,4,4,4,4,4,4,4,4,4,4,4,4,4,4,4
"442",4167,-247.831578947368,4183,-16.5473684210526,-157.578947368421,3267,326.010526315789,3879,4184,253.705263157895,-213.473684210526,4108,3745,271.252631578947,59,0,1547,1743,0,4,4,4,4,4,4,4,4,4,4,4,4,4,4,4,4
"443",4169,-245.778947368421,4184,-15.0105263157895,-151.421052631579,3273,332.168421052632,3878,4182,247.042105263158,-212.452631578947,4106,3747,266.631578947368,60,0,1547,1751,0,4,4,4,4,4,4,4,4,4,4,4,4,4,4,4,4
"444",4168,-243.726315789474,4182,-17.5789473684211,-148.347368421053,3275,328.063157894737,3874,4174,244.989473684211,-210.4,4107,3746,272.789473684211,61,0,1551,1747,0,4,4,4,4,4,4,4,4,4,4,4,4,4,4,4,4
"445",4156,-251.936842105263,4174,-19.6315789473684,-155.526315789474,3268,319.863157894737,3866,4169,236.273684210526,-211.421052631579,4103,3739,268.684210526316,62,0,1543,1747,0,4,4,4,4,4,4,4,4,4,4,4,4,4,4,4,4
"446",4153,-259.115789473684,4169,-16.5473684210526,-162.189473684211,3262,320.368421052632,3861,4169,223.452631578947,-213.473684210526,4093,3725,251.757894736842,63,0,1547,1751,0,4,4,4,4,4,4,4,4,4,4,4,4,4,4,4,4
"447",4157,-259.631578947368,4169,-22.1894736842105,-164.242105263158,3258,319.347368421053,3863,4169,214.726315789474,-212.452631578947,4090,3722,249.2,64,0,1551,1747,413,4,4,4,4,4,4,4,4,4,4,4,4,4,4,4,4
"448",4154,-261.684210526316,4169,-31.4210526315789,-157.578947368421,3255,322.936842105263,3857,4168,211.652631578947,-208.863157894737,4088,3726,250.221052631579,65,0,1543,1751,486,4,4,4,4,4,4,4,4,4,4,4,4,4,4,4,4
"449",4153,-261.684210526316,4169,-29.8842105263158,-151.936842105263,3254,336.273684210526,3851,4172,214.221052631579,-208.347368421053,4083,3723,238.936842105263,66,0,1547,1751,482,4,4,4,4,4,4,4,4,4,4,4,4,4,4,4,4
"450",4155,-264.757894736842,4169,-27.8315789473684,-157.063157894737,3254,336.273684210526,3851,4173,217.294736842105,-208.863157894737,4076,3722,226.126315789474,67,0,1547,1751,516,4,4,4,4,4,4,4,4,4,4,4,4,4,4,4,4
"451",4144,-273.473684210526,4167,-33.4736842105263,-166.294736842105,3253,321.4,3845,4172,220.884210526316,-208.347368421053,4069,3725,215.863157894737,68,0,1547,1751,507,4,4,4,4,4,4,4,4,4,4,4,4,4,4,4,4
"452",4133,-278.6,4165,-33.9894736842105,-167.315789473684,3253,319.347368421053,3835,4175,227.042105263158,-208.347368421053,4064,3717,212.273684210526,69,0,1547,1755,441,4,4,4,4,4,4,4,4,4,4,4,4,4,4,4,4
"453",4142,-276.042105263158,4165,-25.2736842105263,-166.294736842105,3257,319.347368421053,3833,4173,231.652631578947,-210.4,4065,3707,216.894736842105,70,0,1551,1751,465,4,4,4,4,4,4,4,4,4,4,4,4,4,4,4,4
"454",4150,-270.915789473684,4164,-19.1157894736842,-169.368421052632,3263,307.547368421053,3833,4171,236.778947368421,-211.936842105263,4066,3699,221.505263157895,71,0,1547,1755,449,4,4,4,4,4,4,4,4,4,4,4,4,4,4,4,4
"455",4152,-262.18947368421,4166,-12.4526315789474,-167.315789473684,3269,301.905263157895,3831,4178,248.578947368421,-211.936842105263,4070,3695,226.126315789474,72,0,1551,1755,428,4,4,4,4,4,4,4,4,4,4,4,4,4,4,4,4
"456",4162,-255.526315789474,4177,-4.2421052631579,-161.168421052632,3274,306.526315789474,3842,4186,263.452631578947,-209.884210526316,4083,3694,237.915789473684,73,0,1551,1755,466,4,4,4,4,4,4,4,4,4,4,4,4,4,4,4,4
"457",4170,-257.578947368421,4186,-1.16842105263158,-156.547368421053,3274,307.042105263158,3849,4183,267.042105263158,-204.242105263158,4085,3701,240.484210526316,74,0,1547,1755,504,4,4,4,4,4,4,4,4,4,4,4,4,4,4,4,4
"458",4171,-259.631578947368,4184,-3.22105263157895,-152.957894736842,3268,305.494736842105,3837,4187,259.863157894737,-198.6,4078,3711,227.663157894737,75,0,1551,1751,469,4,4,4,4,4,4,4,4,4,4,4,4,4,4,4,4
"459",4182,-253.473684210526,4188,-0.136842105263158,-149.368421052632,3268,306.526315789474,3827,4197,260.368421052632,-198.6,4082,3709,220.989473684211,76,0,1551,1759,423,4,4,4,4,4,4,4,4,4,4,4,4,4,4,4,4
"460",4200,-242.705263157895,4199,10.6315789473684,-146.294736842105,3276,307.042105263158,3832,4193,270.115789473684,-200.136842105263,4092,3699,235.347368421053,77,0,1547,1755,483,4,4,4,4,4,4,4,4,4,4,4,4,4,4,4,4
"461",4204,-241.684210526316,4202,15.2421052631579,-148.863157894737,3275,303.452631578947,3830,4185,268.578947368421,-200.652631578947,4096,3697,249.715789473684,78,0,1547,1759,504,4,4,4,4,4,4,4,4,4,4,4,4,4,4,4,4
"462",4199,-245.273684210526,4198,12.6842105263158,-150.915789473684,3266,300.368421052632,3816,4186,256.273684210526,-200.652631578947,4093,3697,247.663157894737,79,0,1551,1759,469,4,4,4,4,4,4,4,4,4,4,4,4,4,4,4,4
"463",4206,-238.6,4205,13.7052631578947,-143.726315789474,3266,301.905263157895,3811,4189,239.863157894737,-200.652631578947,4092,3695,246.126315789474,80,0,1547,1763,423,4,4,4,4,4,4,4,4,4,4,4,4,4,4,4,4
"464",4217,-229.368421052632,4214,18.8315789473684,-134.505263157895,3272,304.473684210526,3822,4186,223.452631578947,-198.094736842105,4086,3695,244.578947368421,81,0,1551,1767,483,4,4,4,4,4,4,4,4,4,4,4,4,4,4,4,4
"465",4219,-228.863157894737,4212,15.7578947368421,-136.547368421053,3268,303.957894736842,3833,4185,209.6,-197.578947368421,4076,3693,230.736842105263,82,0,1547,1767,504,4,4,4,4,4,4,4,4,4,4,4,4,4,4,4,4
"466",4214,-237.578947368421,4207,4.98947368421053,-138.094736842105,3263,302.421052631579,3827,4186,199.347368421053,-198.6,4073,3688,223.557894736842,83,0,1551,1767,469,4,4,4,4,4,4,4,4,4,4,4,4,4,4,4,4
"467",4218,-246.810526315789,4210,-0.136842105263158,-124.242105263158,3265,302.936842105263,3815,4183,194.221052631579,-198.094736842105,4078,3691,234.842105263158,84,0,1551,1767,423,4,4,4,4,4,4,4,4,4,4,4,4,4,4,4,4
"468",4227,-243.221052631579,4215,1.90526315789474,-108.347368421053,3267,308.578947368421,3815,4189,197.294736842105,-195.526315789474,4086,3695,244.073684210526,85,0,1547,1767,483,4,4,4,4,4,4,4,4,4,4,4,4,4,4,4,4
"469",4231,-230.4,4218,7.54736842105263,-106.810526315789,3272,317.810526315789,3818,4198,201.905263157895,-195.010526315789,4094,3694,247.663157894737,86,0,1547,1763,504,4,4,4,4,4,4,4,4,4,4,4,4,4,4,4,4
"470",4233,-225.778947368421,4217,12.6842105263158,-110.915789473684,3281,323.452631578947,3818,4195,200.884210526316,-195.010526315789,4104,3683,260.484210526316,87,0,1551,1771,469,4,4,4,4,4,4,4,4,4,4,4,4,4,4,4,4
"471",4233,-228.863157894737,4214,15.7578947368421,-110.4,3283,320.368421052632,3818,4187,204.473684210526,-197.063157894737,4111,3670,269.715789473684,88,0,1555,1771,423,4,4,4,4,4,4,4,4,4,4,4,4,4,4,4,4
"472",4234,-233.989473684211,4213,14.2210526315789,-107.315789473684,3278,310.115789473684,3813,4191,211.652631578947,-199.631578947368,4104,3670,254.326315789474,89,0,1547,1775,483,4,4,4,4,4,4,4,4,4,4,4,4,4,4,4,4
"473",4242,-233.473684210526,4215,18.8315789473684,-102.189473684211,3288,303.452631578947,3819,4199,219.863157894737,-198.094736842105,4105,3675,247.663157894737,90,0,1555,1775,504,4,4,4,4,4,4,4,4,4,4,4,4,4,4,4,4
"474",4259,-218.094736842105,4217,35.7578947368421,-97.5789473684211,3308,305.494736842105,3834,4201,234.726315789474,-195.526315789474,4123,3669,271.252631578947,91,0,1555,1775,469,4,4,4,4,4,4,4,4,4,4,4,4,4,4,4,4
"475",4268,-208.347368421053,4213,47.5473684210526,-101.684210526316,3316,303.452631578947,3833,4203,242.936842105263,-195.010526315789,4129,3664,282.536842105263,92,0,1555,1779,423,4,4,4,4,4,4,4,4,4,4,4,4,4,4,4,4
"476",4263,-211.936842105263,4204,49.0842105263158,-107.315789473684,3320,292.684210526316,3827,4205,240.884210526316,-195.010526315789,4125,3670,275.347368421053,93,0,1555,1775,483,4,4,4,4,4,4,4,4,4,4,4,4,4,4,4,4
"477",4263,-206.294736842105,4204,54.2210526315789,-104.757894736842,3331,286.526315789474,3841,4206,244.473684210526,-197.578947368421,4135,3664,282.536842105263,94,0,1555,1775,504,4,4,4,4,4,4,4,4,4,4,4,4,4,4,4,4
"478",4279,-190.4,4213,63.9578947368421,-104.242105263158,3344,296.273684210526,3862,4204,251.136842105263,-199.631578947368,4143,3654,295.347368421053,95,0,1555,1779,469,4,4,4,4,4,4,4,4,4,4,4,4,4,4,4,4
"479",4294,-188.863157894737,4217,64.4736842105263,-101.684210526316,3355,305.494736842105,3866,4204,252.684210526316,-197.063157894737,4137,3667,296.378947368421,96,0,1555,1779,423,4,4,4,4,4,4,4,4,4,4,4,4,4,4,4,4
"480",4295,-191.421052631579,4216,61.4,-86.2947368421053,3370,299.863157894737,3869,4206,257.810526315789,-195.010526315789,4145,3678,304.073684210526,97,0,1555,1783,483,4,4,4,4,4,4,4,4,4,4,4,4,4,4,4,4
"481",4297,-188.863157894737,4218,62.9368421052632,-78.0947368421053,3376,295.757894736842,3877,4205,262.421052631579,-197.063157894737,4156,3667,312.789473684211,98,0,1555,1783,504,4,4,4,4,4,4,4,4,4,4,4,4,4,4,4,4
"482",4308,-191.421052631579,4217,64.4736842105263,-78.6,3369,303.452631578947,3881,4198,250.115789473684,-199.115789473684,4148,3657,306.631578947368,99,0,1551,1787,469,4,4,4,4,4,4,4,4,4,4,4,4,4,4,4,4
"483",4311,-199.115789473684,4216,60.3684210526316,-69.8842105263158,3362,306.010526315789,3875,4189,228.063157894737,-198.6,4135,3666,298.431578947368,100,0,1559,1787,423,4,4,4,4,4,4,4,4,4,4,4,4,4,4,4,4
"484",4305,-200.136842105263,4224,57.8105263157895,-58.6,3359,303.452631578947,3866,4185,210.115789473684,-196.547368421053,4128,3668,292.273684210526,101,0,1551,1787,483,4,4,4,4,4,4,4,4,4,4,4,4,4,4,4,4
"485",4316,-198.6,4231,60.3684210526316,-56.0421052631579,3355,311.136842105263,3863,4183,197.810526315789,-197.063157894737,4122,3661,283.557894736842,102,0,1555,1791,504,4,4,4,4,4,4,4,4,4,4,4,4,4,4,4,4
"486",4336,-199.115789473684,4233,62.4210526315789,-49.8842105263158,3345,324.989473684211,3862,4183,188.578947368421,-197.063157894737,4116,3669,273.305263157895,103,0,1555,1783,469,4,4,4,4,4,4,4,4,4,4,4,4,4,4,4,4
"487",4344,-192.957894736842,4239,66.0105263157895,-39.1157894736842,3341,333.705263157895,3861,4184,183.957894736842,-192.452631578947,4117,3678,276.378947368421,104,0,1555,1787,423,4,4,4,4,4,4,4,4,4,4,4,4,4,4,4,4
"488",4351,-183.726315789474,4250,77.2947368421053,-28.8631578947368,3344,341.4,3867,4184,188.063157894737,-189.368421052632,4127,3670,289.715789473684,105,0,1555,1787,483,4,4,4,4,4,4,4,4,4,4,4,4,4,4,4,4
"489",4367,-179.115789473684,4248,90.1157894736842,-12.9578947368421,3350,-339.736842105263,3883,4183,190.631578947368,-186.810526315789,4135,3670,294.326315789474,106,0,1555,1787,504,4,4,4,4,4,4,4,4,4,4,4,4,4,4,4,4
"490",4380,-171.421052631579,4247,94.2210526315789,-0.136842105263158,3366,-335.126315789474,3897,4182,188.578947368421,-182.705263157895,4141,3683,300.989473684211,107,0,1555,1783,469,4,4,4,4,4,4,4,4,4,4,4,4,4,4,4,4
"491",4384,-163.221052631579,4259,93.1894736842105,3.95789473684211,3381,-338.2,3909,4183,187.547368421053,-182.189473684211,4152,3681,318.431578947368,108,0,1551,1787,423,4,4,4,4,4,4,4,4,4,4,4,4,4,4,4,4
"492",4388,-162.189473684211,4265,94.2210526315789,-0.652631578947368,3389,-338.2,3919,4184,179.863157894737,-184.757894736842,4157,3677,327.147368421053,109,0,1555,1787,483,4,4,4,4,4,4,4,4,4,4,4,4,4,4,4,4
"493",4397,-158.6,4265,100.368421052632,-3.72631578947368,3399,-337.684210526316,3924,4179,166.010526315789,-183.726315789474,4153,3680,325.094736842105,110,0,1551,1783,504,4,4,4,4,4,4,4,4,4,4,4,4,4,4,4,4
"494",4410,-149.368421052632,4273,109.084210526316,3.95789473684211,3416,-337.684210526316,3935,4177,167.042105263158,-181.168421052632,4161,3671,335.863157894737,111,0,1555,1787,469,4,4,4,4,4,4,4,4,4,4,4,4,4,4,4,4
"495",4415,-146.810526315789,4285,112.168421052632,13.1894736842105,3431,-326.915789473684,3951,4183,180.368421052632,-180.652631578947,4174,3662,-335.526315789474,112,0,1551,1783,423,4,4,4,4,4,4,4,4,4,4,4,4,4,4,4,4
"496",4413,-150.4,4286,109.6,20.8842105263158,3434,-319.221052631579,3961,4181,179.347368421053,-179.115789473684,4173,3666,-337.063157894737,113,0,1555,1783,483,4,4,4,4,4,4,4,4,4,4,4,4,4,4,4,4
"497",4420,-150.915789473684,4287,112.684210526316,27.0421052631579,3433,-332.557894736842,3958,4173,170.631578947368,-179.631578947368,4166,3673,338.431578947368,114,0,1551,1783,504,4,4,4,4,4,4,4,4,4,4,4,4,4,4,4,4
"498",4430,-146.810526315789,4295,124.473684210526,32.1684210526316,3439,-341.789473684211,3958,4178,174.221052631579,-179.115789473684,4168,3676,335.863157894737,115,0,1555,1783,469,4,4,4,4,4,4,4,4,4,4,4,4,4,4,4,4
"499",4436,-145.778947368421,4304,130.115789473684,30.6315789473684,3443,-336.663157894737,3962,4186,183.452631578947,-177.578947368421,4169,3673,336.894736842105,116,0,1555,1779,423,4,4,4,4,4,4,4,4,4,4,4,4,4,4,4,4
"500",4440,-148.863157894737,4308,128.063157894737,29.6,3441,-335.126315789474,3961,4184,183.452631578947,-179.115789473684,4160,3668,322.021052631579,117,0,1547,1787,483,4,4,4,4,4,4,4,4,4,4,4,4,4,4,4,4
"501",4442,-151.421052631579,4307,121.4,29.6,3439,-339.221052631579,3950,4178,179.347368421053,-180.136842105263,4152,3664,311.252631578947,118,0,1555,1783,504,4,4,4,4,4,4,4,4,4,4,4,4,4,4,4,4
"502",4442,-152.452631578947,4305,116.273684210526,28.0631578947368,3441,-344.357894736842,3942,4171,180.368421052632,-182.189473684211,4152,3660,316.894736842105,119,0,1547,1783,469,4,4,4,4,4,4,4,4,4,4,4,4,4,4,4,4
"503",4443,-152.957894736842,4309,117.810526315789,32.1684210526316,3436,344.473684210526,3943,4174,183.452631578947,-181.684210526316,4152,3666,313.810526315789,120,0,1551,1783,423,4,4,4,4,4,4,4,4,4,4,4,4,4,4,4,4
"504",4445,-154.505263157895,4318,123.452631578947,42.4210526315789,3426,-342.810526315789,3944,4186,183.957894736842,-172.452631578947,4151,3679,300.484210526316,121,0,1547,1783,483,4,4,4,4,4,4,4,4,4,4,4,4,4,4,4,4
"505",4446,-162.189473684211,4321,121.4,56.2736842105263,3426,342.421052631579,3941,4187,181.905263157895,-168.347368421053,4151,3673,300.484210526316,122,0,1547,1783,504,4,4,4,4,4,4,4,4,4,4,4,4,4,4,4,4
"506",4446,-168.863157894737,4323,112.168421052632,61.4,3430,336.778947368421,3935,4179,180.368421052632,-177.578947368421,4152,3666,304.578947368421,123,0,1547,1779,469,4,4,4,4,4,4,4,4,4,4,4,4,4,4,4,4
"507",4442,-169.368421052632,4325,108.063157894737,52.1684210526316,3426,337.810526315789,3928,4176,177.810526315789,-179.115789473684,4153,3675,304.073684210526,124,0,1547,1783,423,4,4,4,4,4,4,4,4,4,4,4,4,4,4,4,4
"508",4443,-167.831578947368,4325,109.084210526316,51.1368421052632,3421,337.810526315789,3925,4173,169.6,-173.989473684211,4151,3675,302.021052631579,125,0,1543,1775,483,4,4,4,4,4,4,4,4,4,4,4,4,4,4,4,4
"509",4455,-164.242105263158,4328,110.631578947368,59.8631578947368,3430,336.273684210526,3927,4170,166.526315789474,-175.526315789474,4150,3670,300.484210526316,126,0,1539,1783,504,4,4,4,4,4,4,4,4,4,4,4,4,4,4,4,4
"510",4463,-158.6,4335,111.136842105263,62.9368421052632,3445,336.778947368421,3932,4168,170.631578947368,-173.989473684211,4163,3682,315.863157894737,127,0,1543,1779,469,4,4,4,4,4,4,4,4,4,4,4,4,4,4,4,4
"511",4466,-148.347368421053,4343,116.273684210526,66.0105263157895,3459,337.294736842105,3942,4168,171.652631578947,-167.831578947368,4174,3694,336.378947368421,128,0,1535,1779,423,4,4,4,4,4,4,4,4,4,4,4,4,4,4,4,4
"512",4469,-140.652631578947,4346,120.368421052632,71.1368421052632,3465,337.294736842105,3951,4169,168.063157894737,-166.810526315789,4171,3691,335.863157894737,0,0,1535,1779,413,4,4,4,4,4,4,4,4,4,4,4,4,4,4,4,4
"513",4467,-143.726315789474,4344,118.831578947368,64.9894736842105,3466,337.294736842105,3952,4165,168.063157894737,-167.315789473684,4174,3689,335.863157894737,1,0,1531,1779,488,4,4,4,4,4,4,4,4,4,4,4,4,4,4,4,4
"514",4463,-142.705263157895,4346,120.368421052632,57.2947368421053,3483,337.294736842105,3958,4162,171.652631578947,-164.757894736842,4191,3689,-331.421052631579,2,0,1531,1779,482,4,4,4,4,4,4,4,4,4,4,4,4,4,4,4,4
"515",4464,-131.421052631579,4348,126.010526315789,60.3684210526316,3513,333.705263157895,3971,4161,175.757894736842,-164.757894736842,4204,3680,-318.6,3,0,1527,1775,516,4,4,4,4,4,4,4,4,4,4,4,4,4,4,4,4
"516",4461,-133.989473684211,4346,132.168421052632,64.4736842105263,3533,325.494736842105,3977,4159,173.705263157895,-165.273684210526,4205,3685,-329.884210526316,4,0,1523,1775,507,4,4,4,4,4,4,4,4,4,4,4,4,4,4,4,4
"517",4455,-150.915789473684,4348,131.136842105263,62.4210526315789,3539,320.884210526316,3975,4166,165.494736842105,-161.684210526316,4196,3701,-339.631578947368,5,0,1519,1771,441,4,4,4,4,4,4,4,4,4,4,4,4,4,4,4,4
"518",4455,-153.473684210526,4353,127.547368421053,60.3684210526316,3549,320.884210526316,3970,4168,154.726315789474,-158.094736842105,4187,3708,-342.18947368421,6,0,1519,1771,467,4,4,4,4,4,4,4,4,4,4,4,4,4,4,4,4
"519",4465,-145.778947368421,4354,126.526315789474,68.0631578947368,3558,321.4,3963,4159,145.494736842105,-157.578947368421,4187,3697,338.431578947368,7,0,1519,1771,449,4,4,4,4,4,4,4,4,4,4,4,4,4,4,4,4
"520",4476,-150.4,4357,119.347368421053,83.4526315789474,3550,326.010526315789,3957,4157,142.936842105263,-157.578947368421,4177,3692,321.505263157895,8,0,1519,1767,428,4,4,4,4,4,4,4,4,4,4,4,4,4,4,4,4
"521",4477,-168.347368421053,4358,100.884210526316,95.2421052631579,3537,332.168421052632,3946,4162,137.810526315789,-157.063157894737,4154,3698,302.536842105263,9,0,1511,1767,466,4,4,4,4,4,4,4,4,4,4,4,4,4,4,4,4
"522",4478,-181.684210526316,4355,84.9894736842105,109.084210526316,3538,332.684210526316,3930,4155,129.084210526316,-159.631578947368,4142,3687,290.221052631579,10,0,1515,1767,504,4,4,4,4,4,4,4,4,4,4,4,4,4,4,4,4
"523",4491,-179.115789473684,4364,79.3473684210526,129.6,3544,336.273684210526,3926,4156,122.936842105263,-156.547368421053,4140,3682,280.989473684211,11,0,1511,1763,469,4,4,4,4,4,4,4,4,4,4,4,4,4,4,4,4
"524",4494,-178.6,4370,75.2421052631579,142.421052631579,3540,340.368421052632,3926,4168,111.136842105263,-148.863157894737,4129,3698,267.147368421053,12,0,1511,1763,423,4,4,4,4,4,4,4,4,4,4,4,4,4,4,4,4
"525",4489,-183.726315789474,4361,71.1368421052632,137.810526315789,3536,338.315789473684,3915,4167,94.7263157894737,-151.936842105263,4116,3705,259.968421052632,13,0,1507,1763,483,4,4,4,4,4,4,4,4,4,4,4,4,4,4,4,4
"526",4498,-176.042105263158,4363,73.7052631578947,131.136842105263,3543,338.831578947368,3915,4163,92.1684210526316,-156.547368421053,4123,3694,272.273684210526,14,0,1507,1763,504,4,4,4,4,4,4,4,4,4,4,4,4,4,4,4,4
"527",4508,-165.273684210526,4367,78.8315789473684,147.547368421053,3553,341.4,3931,4168,97.2947368421053,-150.4,4135,3703,285.094736842105,15,0,1503,1759,469,4,4,4,4,4,4,4,4,4,4,4,4,4,4,4,4
"528",4505,-172.452631578947,4341,82.4210526315789,169.084210526316,3561,340.368421052632,3930,4167,83.4526315789474,-146.294736842105,4130,3717,280.484210526316,16,0,1499,1759,0,4,4,4,4,4,4,4,4,4,4,4,4,4,4,4,4
"529",4496,-181.684210526316,4297,80.8842105263158,158.831578947368,3567,336.273684210526,3914,4155,66.5263157894737,-152.452631578947,4118,3700,274.842105263158,17,0,1499,1755,0,4,4,4,4,4,4,4,4,4,4,4,4,4,4,4,4
"530",4492,-185.273684210526,4285,69.0842105263158,147.042105263158,3570,329.6,3907,4152,59.3473684210526,-152.957894736842,4124,3698,285.610526315789,18,0,1491,1759,0,4,4,4,4,4,4,4,4,4,4,4,4,4,4,4,4
"531",4490,-195.010526315789,4292,60.3684210526316,157.294736842105,3570,322.421052631579,3901,4155,49.0842105263158,-144.757894736842,4130,3730,293.810526315789,19,0,1491,1755,0,4,4,4,4,4,4,4,4,4,4,4,4,4,4,4,4
"532",4489,-198.6,4294,67.5473684210526,153.705263157895,3569,326.010526315789,3893,4155,42.4210526315789,-139.631578947368,4122,3747,290.221052631579,20,0,1483,1755,0,4,4,4,4,4,4,4,4,4,4,4,4,4,4,4,4
"533",4489,-198.094736842105,4303,72.6842105263158,140.884210526316,3568,336.273684210526,3894,4155,43.9578947368421,-140.136842105263,4124,3736,294.326315789474,21,0,1483,1759,0,4,4,4,4,4,4,4,4,4,4,4,4,4,4,4,4
"534",4490,-207.831578947368,4313,69.6,144.989473684211,3571,334.221052631579,3901,4151,44.4736842105263,-141.684210526316,4135,3729,302.536842105263,22,0,1483,1759,0,4,4,4,4,4,4,4,4,4,4,4,4,4,4,4,4
"535",4493,-210.4,4310,76.2736842105263,140.884210526316,3589,322.421052631579,3914,4143,50.6315789473684,-145.778947368421,4142,3731,312.273684210526,23,0,1479,1759,0,4,4,4,4,4,4,4,4,4,4,4,4,4,4,4,4
"536",4491,-200.136842105263,4309,89.0842105263158,124.473684210526,3613,320.884210526316,3929,4141,62.9368421052632,-148.347368421053,4154,3732,332.789473684211,24,0,1471,1759,0,4,4,4,4,4,4,4,4,4,4,4,4,4,4,4,4
"537",4482,-191.421052631579,4311,92.1684210526316,124.473684210526,3624,319.863157894737,3932,4141,68.5789473684211,-148.347368421053,4166,3728,-342.705263157895,25,0,1475,1759,0,4,4,4,4,4,4,4,4,4,4,4,4,4,4,4,4
"538",4475,-185.273684210526,4302,90.6315789473684,120.884210526316,3621,309.084210526316,3931,4135,69.6,-149.884210526316,4164,3721,336.894736842105,26,0,1467,1755,0,4,4,4,4,4,4,4,4,4,4,4,4,4,4,4,4
"539",4478,-179.631578947368,4295,84.9894736842105,107.547368421053,3624,303.957894736842,3932,4133,69.6,-152.957894736842,4157,3721,326.631578947368,27,0,1463,1755,0,4,4,4,4,4,4,4,4,4,4,4,4,4,4,4,4
"540",4483,-180.652631578947,4303,78.3157894736842,114.726315789474,3634,307.042105263158,3929,4134,64.9894736842105,-150.915789473684,4151,3726,323.042105263158,28,0,1467,1751,0,4,4,4,4,4,4,4,4,4,4,4,4,4,4,4,4
"541",4487,-183.221052631579,4309,77.2947368421053,127.042105263158,3634,304.989473684211,3916,4136,58.8315789473684,-148.863157894737,4132,3728,302.536842105263,29,0,1463,1751,0,4,4,4,4,4,4,4,4,4,4,4,4,4,4,4,4
"542",4493,-180.136842105263,4307,73.1894736842105,124.989473684211,3623,304.473684210526,3903,4136,52.6842105263158,-149.368421052632,4115,3729,278.936842105263,30,0,1463,1751,0,4,4,4,4,4,4,4,4,4,4,4,4,4,4,4,4
"543",4491,-186.294736842105,4310,63.4526315789474,129.6,3612,307.042105263158,3896,4137,44.4736842105263,-147.315789473684,4108,3730,269.2,31,0,1463,1751,0,4,4,4,4,4,4,4,4,4,4,4,4,4,4,4,4
"544",4488,-195.010526315789,4314,59.8631578947368,144.473684210526,3607,304.473684210526,3892,4138,43.4526315789474,-144.757894736842,4101,3731,269.2,32,0,1463,1755,0,4,4,4,4,4,4,4,4,4,4,4,4,4,4,4,4
"545",4493,-197.578947368421,4311,60.3684210526316,146.010526315789,3602,301.905263157895,3884,4139,41.9052631578947,-145.273684210526,4092,3728,264.578947368421,33,0,1459,1755,0,4,4,4,4,4,4,4,4,4,4,4,4,4,4,4,4
"546",4498,-202.189473684211,4310,52.6842105263158,144.989473684211,3591,307.042105263158,3872,4138,32.1684210526316,-144.242105263158,4084,3730,247.147368421053,34,0,1467,1755,0,4,4,4,4,4,4,4,4,4,4,4,4,4,4,4,4
"547",4496,-213.473684210526,4312,39.3473684210526,156.778947368421,3573,309.084210526316,3853,4138,28.0631578947368,-138.6,4074,3741,230.736842105263,35,0,1471,1751,0,4,4,4,4,4,4,4,4,4,4,4,4,4,4,4,4
"548",4492,-222.189473684211,4312,31.6526315789474,164.473684210526,3562,306.526315789474,3828,4138,29.0842105263158,-135.526315789474,4062,3748,220.989473684211,36,0,1467,1755,0,4,4,4,4,4,4,4,4,4,4,4,4,4,4,4,4
"549",4495,-227.831578947368,4311,26.0105263157895,154.221052631579,3556,306.010526315789,3812,4138,32.6842105263158,-133.989473684211,4056,3745,208.684210526316,37,0,1475,1751,0,4,4,4,4,4,4,4,4,4,4,4,4,4,4,4,4
"550",4489,-239.631578947368,4312,16.2736842105263,138.831578947368,3545,299.347368421053,3807,4138,34.2210526315789,-133.989473684211,4057,3745,205.094736842105,38,0,1479,1747,0,4,4,4,4,4,4,4,4,4,4,4,4,4,4,4,4
"551",4470,-257.578947368421,4305,1.4,134.221052631579,3529,279.863157894737,3793,4132,35.2421052631579,-142.189473684211,4047,3750,209.2,39,0,1479,1747,0,4,4,4,4,4,4,4,4,4,4,4,4,4,4,4,4
"552",4452,-278.094736842105,4296,-15.5263157894737,140.368421052632,3510,266.010526315789,3770,4124,29.0842105263158,-147.315789473684,4022,3750,194.842105263158,40,0,1483,1747,0,4,4,4,4,4,4,4,4,4,4,4,4,4,4,4,4
"553",4448,-289.368421052632,4296,-26.2947368421053,143.957894736842,3486,263.957894736842,3753,4123,20.8842105263158,-147.315789473684,4003,3747,178.936842105263,41,0,1495,1743,0,4,4,4,4,4,4,4,4,4,4,4,4,4,4,4,4
"554",4444,-300.652631578947,4295,-37.5789473684211,138.315789473684,3462,259.347368421053,3743,4122,21.9052631578947,-151.421052631579,3997,3745,184.073684210526,42,0,1503,1747,0,4,4,4,4,4,4,4,4,4,4,4,4,4,4,4,4
"555",4432,-316.042105263158,4291,-52.9578947368421,137.294736842105,3462,255.757894736842,3733,4121,29.0842105263158,-153.473684210526,3993,3751,189.2,43,0,1507,1743,0,4,4,4,4,4,4,4,4,4,4,4,4,4,4,4,4
"556",4426,-320.652631578947,4294,-60.1368421052632,142.936842105263,3476,260.368421052632,3725,4126,32.6842105263158,-148.863157894737,3984,3761,186.126315789474,44,0,1511,1739,0,4,4,4,4,4,4,4,4,4,4,4,4,4,4,4,4
"557",4426,-318.6,4295,-59.6315789473684,142.936842105263,3482,259.347368421053,3726,4129,32.6842105263158,-150.4,3975,3756,189.715789473684,45,0,1515,1739,0,4,4,4,4,4,4,4,4,4,4,4,4,4,4,4,4
"558",4416,-321.168421052632,4292,-63.7263157894737,138.315789473684,3486,249.6,3728,4125,31.1368421052632,-155.526315789474,3975,3748,193.810526315789,46,0,1519,1743,0,4,4,4,4,4,4,4,4,4,4,4,4,4,4,4,4
"559",4408,-323.221052631579,4293,-69.8842105263158,139.863157894737,3489,242.936842105263,3719,4124,22.9368421052632,-152.957894736842,3975,3762,186.631578947368,47,0,1527,1735,0,4,4,4,4,4,4,4,4,4,4,4,4,4,4,4,4
"560",4413,-319.115789473684,4297,-65.7789473684211,137.294736842105,3483,244.473684210526,3712,4125,15.2421052631579,-149.884210526316,3970,3775,176.894736842105,48,0,1527,1735,0,4,4,4,4,4,4,4,4,4,4,4,4,4,4,4,4
"561",4406,-323.221052631579,4294,-60.1368421052632,128.578947368421,3474,244.473684210526,3711,4121,4.98947368421053,-154.505263157895,3961,3768,162.021052631579,49,0,1539,1735,0,4,4,4,4,4,4,4,4,4,4,4,4,4,4,4,4
"562",4387,-336.547368421053,4284,-64.7578947368421,133.189473684211,3470,239.347368421053,3702,4121,-13.4736842105263,-161.168421052632,3944,3760,137.4,50,0,1543,1735,0,4,4,4,4,4,4,4,4,4,4,4,4,4,4,4,4
"563",4391,-342.18947368421,4279,-67.8315789473684,149.084210526316,3472,244.473684210526,3696,4122,-21.6842105263158,-162.705263157895,3929,3753,120.484210526316,51,0,1547,1735,0,4,4,4,4,4,4,4,4,4,4,4,4,4,4,4,4
"564",4404,-337.578947368421,4284,-63.7263157894737,157.810526315789,3486,259.347368421053,3697,4117,-26.2947368421053,-163.221052631579,3922,3746,115.347368421053,52,0,1551,1731,0,4,4,4,4,4,4,4,4,4,4,4,4,4,4,4,4
"565",4400,-335.526315789474,4290,-65.2736842105263,162.421052631579,3488,260.884210526316,3687,4112,-44.7578947368421,-161.168421052632,3909,3758,101.505263157895,53,0,1559,1735,0,4,4,4,4,4,4,4,4,4,4,4,4,4,4,4,4
"566",4398,-340.136842105263,4291,-79.1157894736842,167.042105263158,3472,249.084210526316,3674,4109,-59.6315789473684,-157.578947368421,3892,3773,90.2210526315789,54,0,1563,1731,0,4,4,4,4,4,4,4,4,4,4,4,4,4,4,4,4
"567",4409,-341.168421052632,4291,-87.3157894736842,170.631578947368,3470,247.042105263158,3679,4108,-67.3157894736842,-156.042105263158,3890,3769,89.2,55,0,1567,1731,0,4,4,4,4,4,4,4,4,4,4,4,4,4,4,4,4
"568",4412,-338.094736842105,4292,-84.2421052631579,176.778947368421,3484,250.631578947368,3685,4102,-82.1894736842105,-156.547368421053,3890,3765,76.8947368421053,56,0,1571,1731,0,4,4,4,4,4,4,4,4,4,4,4,4,4,4,4,4
"569",4404,-337.578947368421,4295,-81.1684210526316,180.368421052632,3494,245.494736842105,3681,4097,-95.0105263157895,-154.505263157895,3889,3770,74.3263157894737,57,0,1571,1735,0,4,4,4,4,4,4,4,4,4,4,4,4,4,4,4,4
