"","AF3","AF4","F3","F4","F7","F8","FC5","FC6","O1","O2","P7","P8","T7","T8","COUNTER","INTERPOLATED","GYROX","GYROY","RAW_CQ","CQ_CMS","CQ_F7","CQ_T7","CQ_O2","CQ_FC6","CQ_AF4","CQ_F3","CQ_P7","CQ_P8","CQ_F4","CQ_AF3","CQ_FC5","CQ_O1","CQ_T8","CQ_F8","CQ_DRL"
"1",4037,-9.36842105263158,4248,-332.957894736842,-123.326315789474,4017,-256.663157894737,3967,4371,106.526315789474,-4.2421052631579,4314,3912,11.6526315789474,50,0,1579,1771,0,4,4,4,4,4,4,3,4,4,4,4,4,4,4,4,4
"2",4036,12.1684210526316,4247,-312.957894736842,-137.168421052632,4038,-258.715789473684,3988,4367,133.705263157895,-3.22105263157895,4340,3922,41.4,51,0,1575,1771,0,4,4,4,4,4,4,3,4,4,4,4,4,4,4,4,4
"3",4034,17.8105263157895,4247,-303.726315789474,-151.536842105263,4043,-257.684210526316,3993,4371,136.778947368421,-3.72631578947368,4348,3930,51.6526315789474,52,0,1567,1763,0,4,4,4,4,4,4,3,4,4,4,4,4,4,4,4,4
"4",4042,9.6,4249,-312.957894736842,-139.736842105263,4029,-255.126315789474,3989,4386,118.315789473684,1.4,4337,3932,42.4210526315789,53,0,1567,1763,0,4,4,4,4,4,4,3,4,4,4,4,4,4,4,4,4
"5",4041,-1.68421052631579,4248,-325.778947368421,-128.968421052632,4028,-257.168421052632,3977,4377,106.010526315789,-0.652631578947368,4324,3921,32.1684210526316,54,0,1567,1763,0,4,4,4,4,4,4,3,4,4,4,4,4,4,4,4,4
"6",4033,21.4,4243,-306.294736842105,-136.663157894737,4066,-259.221052631579,3992,4358,134.726315789474,-17.5789473684211,4347,3895,55.2421052631579,55,0,1563,1759,0,4,4,4,4,4,4,3,4,4,4,4,4,4,4,4,4
"7",4038,49.0842105263158,4244,-282.18947368421,-156.663157894737,4093,-262.305263157895,4024,4356,167.042105263158,-13.9894736842105,4382,3910,85.4947368421053,56,0,1559,1759,0,4,4,4,4,4,4,3,4,4,4,4,4,4,4,4,4
"8",4045,40.3684210526316,4248,-285.273684210526,-168.452631578947,4075,-260.252631578947,4024,4368,161.4,-1.16842105263158,4377,3933,83.4526315789474,57,0,1563,1763,0,4,4,4,4,4,4,3,4,4,4,4,4,4,4,4,4
"9",4042,27.0421052631579,4239,-294.505263157895,-157.684210526316,4065,-259.736842105263,4010,4375,147.547368421053,-9.36842105263158,4361,3912,70.1157894736842,58,0,1563,1755,0,4,4,4,4,4,4,3,4,4,4,4,4,4,4,4,4
"10",4035,22.4210526315789,4236,-302.705263157895,-149.484210526316,4064,-267.431578947368,3998,4372,135.757894736842,-12.4526315789474,4349,3908,49.0842105263158,59,0,1559,1763,0,4,4,4,4,4,4,3,4,4,4,4,4,4,4,4,4
"11",4025,-6.29473684210526,4241,-326.810526315789,-164.357894736842,4030,-272.042105263158,3967,4368,109.6,0.368421052631579,4318,3936,12.6842105263158,60,0,1567,1763,0,4,4,4,4,4,4,3,4,4,4,4,4,4,4,4,4
"12",4023,-22.1894736842105,4242,-337.063157894737,-179.221052631579,4003,-267.947368421053,3953,4356,96.778947368421,-2.18947368421053,4304,3923,6.01052631578947,61,0,1567,1759,0,4,4,4,4,4,4,3,4,4,4,4,4,4,4,4,4
"13",4038,0.884210526315789,4237,-318.6,-172.557894736842,4028,-260.768421052632,3979,4358,116.273684210526,-8.86315789473684,4328,3902,31.1368421052632,62,0,1567,1759,0,4,4,4,4,4,4,3,4,4,4,4,4,4,4,4,4
"14",4050,13.1894736842105,4242,-308.347368421053,-161.273684210526,4054,-255.631578947368,3993,4382,129.6,0.368421052631579,4339,3920,37.8105263157895,63,0,1571,1763,0,4,4,4,4,4,4,3,4,4,4,4,4,4,4,4,4
"15",4041,-2.70526315789474,4244,-322.18947368421,-162.810526315789,4034,-259.221052631579,3978,4386,112.168421052632,-1.16842105263158,4324,3922,26.0105263157895,64,0,1575,1759,330,4,4,4,4,4,4,3,4,4,4,4,4,4,4,4,4
"16",4032,-11.9368421052632,4237,-329.884210526316,-171.021052631579,4015,-265.894736842105,3971,4373,92.6842105263158,-9.88421052631579,4316,3903,26.0105263157895,65,0,1575,1759,433,4,4,4,4,4,4,3,4,4,4,4,4,4,4,4,4
"17",4038,-3.72631578947368,4237,-324.757894736842,-173.073684210526,4032,-264.357894736842,3976,4381,92.1684210526316,-6.81052631578947,4322,3909,27.5473684210526,66,0,1575,1763,451,4,4,4,4,4,4,3,4,4,4,4,4,4,4,4,4
"18",4041,-1.68421052631579,4240,-330.915789473684,-172.042105263158,4045,-260.252631578947,3976,4387,95.2421052631579,-0.136842105263158,4322,3917,18.3157894736842,67,0,1579,1759,482,4,4,4,4,4,4,3,4,4,4,4,4,4,4,4,4
"19",4037,-6.29473684210526,4241,-335.010526315789,-177.684210526316,4035,-262.305263157895,3974,4368,91.1368421052632,-2.18947368421053,4315,3913,12.6842105263158,68,0,1575,1759,504,4,4,4,4,4,4,3,4,4,4,4,4,4,4,4,4
"20",4039,-8.86315789473684,4237,-327.831578947368,-178.715789473684,4028,-262.305263157895,3978,4364,92.6842105263158,-9.36842105263158,4314,3908,17.8105263157895,69,0,1583,1759,442,4,4,4,4,4,4,3,4,4,4,4,4,4,4,4,4
"21",4048,-0.136842105263158,4237,-319.631578947368,-171.536842105263,4043,-260.252631578947,3992,4381,104.989473684211,-9.88421052631579,4329,3898,33.7052631578947,70,0,1579,1759,461,4,4,4,4,4,4,3,4,4,4,4,4,4,4,4,4
"22",4054,16.2736842105263,4239,-307.315789473684,-172.042105263158,4062,-260.768421052632,4013,4393,122.936842105263,-3.22105263157895,4351,3902,56.2736842105263,71,0,1579,1759,445,4,4,4,4,4,4,3,4,4,4,4,4,4,4,4,4
"23",4053,14.2210526315789,4239,-306.294736842105,-189.484210526316,4049,-260.252631578947,4010,4392,129.6,2.93684210526316,4350,3928,59.8631578947368,72,0,1579,1759,451,4,4,4,4,4,4,3,4,4,4,4,4,4,4,4,4
"24",4046,-3.72631578947368,4234,-321.168421052632,-200.252631578947,4022,-261.273684210526,3986,4380,121.905263157895,-6.29473684210526,4328,3919,40.8842105263158,73,0,1583,1759,468,4,4,4,4,4,4,3,4,4,4,4,4,4,4,4,4
"25",4051,-1.16842105263158,4234,-319.631578947368,-188.968421052632,4034,-262.305263157895,3989,4373,133.189473684211,-14.5052631578947,4331,3888,42.9368421052632,74,0,1575,1755,499,4,4,4,4,4,4,3,4,4,4,4,4,4,4,4,4
"26",4061,18.3157894736842,4242,-302.18947368421,-191.021052631579,4064,-258.715789473684,4014,4390,158.315789473684,-4.7578947368421,4361,3904,62.9368421052632,75,0,1575,1755,410,4,4,4,4,4,4,3,4,4,4,4,4,4,4,4,4
"27",4052,17.2947368421053,4238,-303.726315789474,-208.452631578947,4055,-260.252631578947,4014,4403,162.936842105263,2.42105263157895,4361,3933,64.4736842105263,76,0,1575,1751,452,4,4,4,4,4,4,3,4,4,4,4,4,4,4,4,4
"28",4043,11.6526315789474,4238,-311.421052631579,-206.4,4039,-264.863157894737,4001,4393,154.726315789474,-2.18947368421053,4344,3929,59.3473684210526,77,0,1571,1755,376,4,4,4,4,4,4,3,4,4,4,4,4,4,4,4,4
"29",4048,6.01052631578947,4242,-316.547368421053,-198.715789473684,4043,-264.863157894737,3993,4386,150.115789473684,-4.7578947368421,4338,3917,53.7052631578947,78,0,1571,1751,499,4,4,4,4,4,4,3,4,4,4,4,4,4,4,4,4
"30",4055,-3.22105263157895,4242,-322.18947368421,-212.042105263158,4034,-261.273684210526,3985,4389,136.273684210526,-1.16842105263158,4333,3917,39.8631578947368,79,0,1567,1747,410,4,4,4,4,4,4,3,4,4,4,4,4,4,4,4,4
"31",4063,8.57894736842105,4237,-311.421052631579,-211.021052631579,4038,-257.684210526316,3997,4390,142.936842105263,-4.2421052631579,4341,3913,49.6,80,0,1567,1743,452,4,4,4,4,4,4,3,4,4,4,4,4,4,4,4,4
"32",4071,34.7263157894737,4236,-288.347368421053,-207.947368421053,4069,-256.663157894737,4029,4388,178.315789473684,-10.9157894736842,4371,3907,81.4,81,0,1567,1735,376,4,4,4,4,4,4,3,4,4,4,4,4,4,4,4,4
"33",4065,36.2736842105263,4233,-285.778947368421,-232.042105263158,4082,-261.273684210526,4031,4377,181.905263157895,-13.4736842105263,4379,3909,86.5263157894737,82,0,1571,1727,499,4,4,4,4,4,4,3,4,4,4,4,4,4,4,4,4
"34",4059,25.4947368421053,4233,-296.547368421053,-220.768421052632,4075,-263.326315789474,4017,4368,159.863157894737,-12.4526315789474,4363,3908,71.6526315789474,83,0,1567,1719,410,4,4,4,4,4,4,3,4,4,4,4,4,4,4,4,4
"35",4073,35.2421052631579,4244,-288.863157894737,-180.252631578947,4084,-257.684210526316,4030,4383,171.652631578947,-4.2421052631579,4370,3909,78.3157894736842,84,0,1571,1715,452,4,4,4,4,4,4,3,4,4,4,4,4,4,4,4,4
"36",4073,33.1894736842105,4241,-288.347368421053,-195.126315789474,4080,-256.663157894737,4034,4397,178.831578947368,-3.72631578947368,4375,3913,77.2947368421053,85,0,1575,1699,376,4,4,4,4,4,4,3,4,4,4,4,4,4,4,4,4
"37",4054,1.4,4234,-315.526315789474,-233.578947368421,4042,-263.842105263158,3998,4389,136.273684210526,-9.88421052631579,4336,3912,37.8105263157895,86,0,1575,1691,499,4,4,4,4,4,4,3,4,4,4,4,4,4,4,4,4
"38",4058,-10.9157894736842,4240,-328.347368421053,-222.305263157895,4031,-261.789473684211,3986,4387,115.242105263158,-5.77894736842105,4314,3914,18.8315789473684,87,0,1583,1675,410,4,4,4,4,4,4,3,4,4,4,4,4,4,4,4,4
"39",4083,11.1368421052632,4252,-307.315789473684,-186.4,4056,-248.452631578947,4020,4390,133.189473684211,5.49473684210526,4339,3930,43.9578947368421,88,0,1587,1663,452,4,4,4,4,4,4,3,4,4,4,4,4,4,4,4,4
"40",4087,15.7578947368421,4250,-298.6,-169.484210526316,4065,-243.326315789474,4039,4376,122.421052631579,4.98947368421053,4352,3934,55.2421052631579,89,0,1591,1651,376,4,4,4,4,4,4,3,4,4,4,4,4,4,4,4,4
"41",4077,6.01052631578947,4245,-308.347368421053,-154.094736842105,4067,-256.147368421053,4029,4378,101.905263157895,-4.7578947368421,4339,3904,40.3684210526316,90,0,1603,1643,499,4,4,4,4,4,4,3,4,4,4,4,4,4,4,4,4
"42",4073,9.6,4246,-305.778947368421,-135.126315789474,4085,-263.842105263158,4024,4408,115.242105263158,-4.2421052631579,4340,3888,34.7263157894737,91,0,1603,1635,410,4,4,4,4,4,4,3,4,4,4,4,4,4,4,4,4
"43",4072,10.1157894736842,4248,-304.242105263158,-152.042105263158,4089,-252.557894736842,4022,4418,123.957894736842,0.884210526315789,4343,3915,33.7052631578947,92,0,1607,1639,452,4,4,4,4,4,4,3,4,4,4,4,4,4,4,4,4
"44",4073,-4.7578947368421,4250,-315.526315789474,-175.631578947368,4062,-247.431578947368,4009,4392,108.063157894737,2.42105263157895,4329,3937,22.9368421052632,93,0,1607,1639,376,4,4,4,4,4,4,3,4,4,4,4,4,4,4,4,4
"45",4075,-20.1368421052632,4248,-327.831578947368,-160.252631578947,4027,-257.684210526316,4002,4373,97.8105263157895,-0.136842105263158,4314,3923,10.1157894736842,94,0,1615,1643,499,4,4,4,4,4,4,3,4,4,4,4,4,4,4,4,4
"46",4075,-16.5473684210526,4247,-325.273684210526,-154.610526315789,4029,-263.326315789474,4006,4384,104.989473684211,-2.18947368421053,4317,3907,9.6,95,0,1619,1643,410,4,4,4,4,4,4,3,4,4,4,4,4,4,4,4,4
"47",4075,-4.7578947368421,4244,-314.505263157895,-181.789473684211,4059,-257.684210526316,4015,4398,116.778947368421,-1.68421052631579,4328,3910,19.3473684210526,96,0,1623,1655,452,4,4,4,4,4,4,3,4,4,4,4,4,4,4,4,4
"48",4076,2.42105263157895,4244,-310.4,-185.378947368421,4057,-259.221052631579,4023,4401,126.010526315789,-3.22105263157895,4335,3901,29.0842105263158,97,0,1627,1659,376,4,4,4,4,4,4,3,4,4,4,4,4,4,4,4,4
"49",4079,9.6,4246,-301.684210526316,-157.168421052632,4045,-268.452631578947,4033,4393,143.957894736842,-5.27368421052632,4352,3887,49.6,98,0,1627,1671,499,4,4,4,4,4,4,3,4,4,4,4,4,4,4,4,4
"50",4078,22.9368421052632,4247,-289.368421052632,-157.168421052632,4064,-268.968421052632,4040,4386,159.347368421053,-2.18947368421053,4370,3903,70.1157894736842,99,0,1635,1679,410,4,4,4,4,4,4,3,4,4,4,4,4,4,4,4,4
"51",4072,14.7263157894737,4248,-297.578947368421,-176.663157894737,4055,-265.378947368421,4032,4379,148.578947368421,2.42105263157895,4354,3923,55.2421052631579,100,0,1635,1687,452,4,4,4,4,4,4,3,4,4,4,4,4,4,4,4,4
"52",4072,-3.22105263157895,4247,-309.884210526316,-183.842105263158,4027,-268.968421052632,4027,4381,132.168421052632,-0.652631578947368,4337,3917,38.8315789473684,101,0,1639,1695,376,4,4,4,4,4,4,3,4,4,4,4,4,4,4,4,4
"53",4074,-0.136842105263158,4246,-307.831578947368,-184.863157894737,4027,-275.126315789474,4028,4392,135.757894736842,-4.2421052631579,4349,3907,46.0105263157895,102,0,1639,1699,499,4,4,4,4,4,4,3,4,4,4,4,4,4,4,4,4
"54",4074,-1.68421052631579,4245,-308.347368421053,-192.557894736842,4011,-273.578947368421,4023,4393,137.810526315789,-2.70526315789474,4345,3907,41.4,103,0,1643,1695,410,4,4,4,4,4,4,3,4,4,4,4,4,4,4,4,4
"55",4075,-7.31578947368421,4247,-312.957894736842,-197.684210526316,3994,-270.505263157895,4018,4388,134.221052631579,-1.16842105263158,4333,3910,32.1684210526316,104,0,1643,1691,452,4,4,4,4,4,4,3,4,4,4,4,4,4,4,4,4
"56",4076,3.45263157894737,4247,-308.347368421053,-188.968421052632,4028,-273.578947368421,4024,4388,143.957894736842,-2.18947368421053,4346,3913,47.5473684210526,105,0,1647,1691,376,4,4,4,4,4,4,3,4,4,4,4,4,4,4,4,4
"57",4083,16.2736842105263,4247,-293.989473684211,-189.484210526316,4045,-273.073684210526,4039,4394,165.494736842105,-4.2421052631579,4363,3903,68.0631578947368,106,0,1647,1683,499,4,4,4,4,4,4,3,4,4,4,4,4,4,4,4,4
"58",4093,19.3473684210526,4248,-280.136842105263,-197.684210526316,4028,-268.452631578947,4058,4399,188.578947368421,-3.72631578947368,4373,3896,81.4,107,0,1643,1687,410,4,4,4,4,4,4,3,4,4,4,4,4,4,4,4,4
"59",4090,17.2947368421053,4250,-282.705263157895,-205.894736842105,4022,-267.431578947368,4050,4403,184.989473684211,0.884210526315789,4370,3922,72.6842105263158,108,0,1647,1683,452,4,4,4,4,4,4,3,4,4,4,4,4,4,4,4,4
"60",4080,-3.22105263157895,4248,-305.273684210526,-214.610526315789,4002,-272.557894736842,4022,4411,155.757894736842,0.884210526315789,4344,3930,37.8105263157895,109,0,1635,1683,376,4,4,4,4,4,4,3,4,4,4,4,4,4,4,4,4
"61",4078,-19.6315789473684,4245,-311.936842105263,-211.536842105263,3984,-273.073684210526,4014,4418,146.010526315789,-2.18947368421053,4329,3909,21.9052631578947,110,0,1635,1687,499,4,4,4,4,4,4,3,4,4,4,4,4,4,4,4,4
"62",4081,-6.29473684210526,4247,-302.705263157895,-218.2,4009,-269.989473684211,4022,4422,155.242105263158,-3.22105263157895,4339,3903,33.1894736842105,111,0,1627,1695,410,4,4,4,4,4,4,3,4,4,4,4,4,4,4,4,4
"63",4086,3.45263157894737,4248,-298.094736842105,-239.736842105263,4018,-271.021052631579,4031,4410,158.315789473684,-6.81052631578947,4347,3903,38.8315789473684,112,0,1619,1699,452,4,4,4,4,4,4,3,4,4,4,4,4,4,4,4,4
"64",4092,-5.27368421052632,4247,-295.010526315789,-243.326315789474,3996,-273.073684210526,4042,4399,155.757894736842,-8.34736842105263,4346,3896,36.7789473684211,113,0,1607,1707,376,4,4,4,4,4,4,3,4,4,4,4,4,4,4,4,4
"65",4089,-6.29473684210526,4246,-299.631578947368,-237.684210526316,3998,-274.094736842105,4037,4403,153.189473684211,-6.81052631578947,4343,3896,33.1894736842105,114,0,1599,1719,499,4,4,4,4,4,4,3,4,4,4,4,4,4,4,4,4
"66",4093,-0.652631578947368,4246,-304.242105263158,-247.947368421053,4010,-275.631578947368,4031,4418,156.273684210526,-7.31578947368421,4341,3895,27.5473684210526,115,0,1591,1723,410,4,4,4,4,4,4,3,4,4,4,4,4,4,4,4,4
"67",4103,-10.4,4247,-305.778947368421,-262.810526315789,3994,-276.663157894737,4031,4428,167.042105263158,-6.29473684210526,4337,3899,30.1157894736842,116,0,1583,1731,452,4,4,4,4,4,4,3,4,4,4,4,4,4,4,4,4
"68",4105,-20.6526315789474,4249,-309.368421052632,-269.989473684211,3978,-276.663157894737,4019,4425,162.936842105263,-0.652631578947368,4326,3915,26.5263157894737,117,0,1575,1735,376,4,4,4,4,4,4,3,4,4,4,4,4,4,4,4,4
"69",4111,-9.88421052631579,4248,-307.315789473684,-261.273684210526,3998,-276.147368421053,4018,4423,161.905263157895,-0.652631578947368,4327,3916,23.4526315789474,118,0,1567,1735,499,4,4,4,4,4,4,3,4,4,4,4,4,4,4,4,4
"70",4126,22.9368421052632,4250,-281.684210526316,-235.126315789474,4043,-274.610526315789,4050,4427,196.778947368421,0.368421052631579,4365,3908,55.7578947368421,119,0,1563,1735,410,4,4,4,4,4,4,3,4,4,4,4,4,4,4,4,4
"71",4127,38.3157894736842,4256,-264.242105263158,-219.736842105263,4055,-273.578947368421,4064,4433,222.936842105263,10.1157894736842,4392,3919,86.0105263157895,120,0,1555,1735,452,4,4,4,4,4,4,3,4,4,4,4,4,4,4,4,4
"72",4117,14.7263157894737,4256,-282.705263157895,-240.252631578947,4015,-275.126315789474,4032,4435,196.273684210526,14.7263157894737,4367,3935,58.3157894736842,121,0,1551,1731,376,4,4,4,4,4,4,3,4,4,4,4,4,4,4,4,4
"73",4123,-11.9368421052632,4254,-303.221052631579,-254.094736842105,3975,-275.631578947368,4000,4443,170.115789473684,12.6842105263158,4329,3942,14.7263157894737,122,0,1543,1723,499,4,4,4,4,4,4,3,4,4,4,4,4,4,4,4,4
"74",4136,-19.1157894736842,4258,-309.368421052632,-225.378947368421,3968,-272.042105263158,3997,4449,177.294736842105,13.1894736842105,4320,3940,7.54736842105263,123,0,1539,1719,410,4,4,4,4,4,4,3,4,4,4,4,4,4,4,4,4
"75",4148,-11.4210526315789,4264,-302.705263157895,-190.505263157895,3979,-269.989473684211,4006,4440,178.315789473684,14.2210526315789,4326,3932,15.2421052631579,124,0,1539,1711,452,4,4,4,4,4,4,3,4,4,4,4,4,4,4,4,4
"76",4152,-6.81052631578947,4262,-300.136842105263,-191.021052631579,3989,-271.021052631579,4005,4435,163.957894736842,13.1894736842105,4328,3926,12.6842105263158,125,0,1527,1703,376,4,4,4,4,4,4,3,4,4,4,4,4,4,4,4,4
"77",4153,0.368421052631579,4262,-300.136842105263,-207.431578947368,3997,-267.947368421053,4010,4449,174.726315789474,12.1684210526316,4338,3924,22.4210526315789,126,0,1527,1695,499,4,4,4,4,4,4,3,4,4,4,4,4,4,4,4,4
"78",4162,7.54736842105263,4264,-293.473684210526,-208.968421052632,4001,-259.736842105263,4023,4449,200.368421052632,12.1684210526316,4352,3923,43.4526315789474,127,0,1519,1691,410,4,4,4,4,4,4,3,4,4,4,4,4,4,4,4,4
"79",4176,8.06315789473684,4263,-289.368421052632,-213.578947368421,3999,-255.126315789474,4027,4422,201.4,11.6526315789474,4355,3928,49.6,128,0,1515,1679,452,4,4,4,4,4,4,4,4,4,4,4,4,4,4,4,4
"80",4184,6.01052631578947,4262,-289.884210526316,-220.768421052632,4000,-259.221052631579,4024,4414,190.115789473684,11.6526315789474,4355,3932,41.9052631578947,0,0,1507,1667,331,4,4,4,4,4,4,3,4,4,4,4,4,4,4,4,4
"81",4185,16.2736842105263,4264,-282.705263157895,-207.947368421053,4015,-262.305263157895,4028,4445,207.547368421053,11.1368421052632,4368,3918,51.6526315789474,1,0,1503,1655,433,4,4,4,4,4,4,3,4,4,4,4,4,4,4,4,4
"82",4198,31.1368421052632,4265,-269.884210526316,-194.610526315789,4037,-259.221052631579,4042,4462,234.221052631579,12.1684210526316,4385,3907,68.5789473684211,2,0,1499,1651,451,4,4,4,4,4,4,3,4,4,4,4,4,4,4,4,4
"83",4216,24.4736842105263,4263,-272.957894736842,-201.273684210526,4037,-255.631578947368,4046,4448,224.473684210526,14.2210526315789,4380,3923,57.2947368421053,3,0,1499,1647,486,4,4,4,4,4,4,3,4,4,4,4,4,4,4,4,4
"84",4221,16.2736842105263,4263,-275.526315789474,-201.789473684211,4025,-254.610526315789,4041,4441,201.4,13.7052631578947,4370,3929,42.4210526315789,4,0,1499,1647,504,4,4,4,4,4,4,3,4,4,4,4,4,4,4,4,4
"85",4222,20.3684210526316,4264,-269.368421052632,-179.221052631579,4031,-254.610526315789,4045,4450,209.084210526316,13.1894736842105,4376,3919,48.5789473684211,5,0,1495,1643,442,4,4,4,4,4,4,3,4,4,4,4,4,4,4,4,4
"86",4230,22.9368421052632,4265,-270.4,-158.2,4042,-252.557894736842,4047,4448,218.315789473684,14.2210526315789,4374,3911,41.4,6,0,1491,1651,463,4,4,4,4,4,4,3,4,4,4,4,4,4,4,4,4
"87",4236,16.2736842105263,4264,-276.042105263158,-127.947368421053,4034,-247.431578947368,4039,4438,206.526315789474,11.1368421052632,4362,3901,21.9052631578947,7,0,1487,1651,446,4,4,4,4,4,4,3,4,4,4,4,4,4,4,4,4
"88",4235,7.54736842105263,4270,-278.094736842105,-81.7894736842105,4014,-244.357894736842,4027,4452,200.368421052632,16.2736842105263,4354,3899,17.8105263157895,8,0,1483,1655,451,4,4,4,4,4,4,3,4,4,4,4,4,4,4,4,4
"89",4237,-7.83157894736842,4277,-285.778947368421,-51.0210526315789,3994,-243.842105263158,4013,4473,201.905263157895,30.1157894736842,4347,3912,9.08421052631579,9,0,1483,1663,468,4,4,4,4,4,4,3,4,4,4,4,4,4,4,4,4
"90",4237,-27.8315789473684,4276,-303.221052631579,-40.7684210526316,3971,-243.326315789474,3993,4462,184.473684210526,29.0842105263158,4324,3909,-18.6,10,0,1483,1671,500,4,4,4,4,4,4,3,4,4,4,4,4,4,4,4,4
"91",4233,-39.6315789473684,4272,-319.631578947368,-27.4315789473684,3958,-246.4,3971,4435,159.347368421053,13.7052631578947,4302,3891,-45.2736842105263,11,0,1487,1671,410,4,4,4,4,4,4,3,4,4,4,4,4,4,4,4,4
"92",4238,-46.8105263157895,4276,-324.757894736842,-3.84210526315789,3957,-246.4,3960,4434,152.168421052632,18.3157894736842,4293,3892,-58.6,12,0,1487,1683,452,4,4,4,4,4,4,3,4,4,4,4,4,4,4,4,4
"93",4248,-51.4210526315789,4282,-325.778947368421,8.46315789473684,3948,-244.357894736842,3961,4449,151.136842105263,30.1157894736842,4290,3902,-62.1894736842105,13,0,1495,1683,376,4,4,4,4,4,4,3,4,4,4,4,4,4,4,4,4
"94",4249,-58.0947368421053,4274,-336.042105263158,18.7263157894737,3933,-251.021052631579,3952,4432,137.810526315789,21.4,4279,3894,-69.3684210526316,14,0,1491,1687,500,4,4,4,4,4,4,3,4,4,4,4,4,4,4,4,4
"95",4238,-69.8842105263158,4273,336.378947368421,45.9052631578947,3918,-259.736842105263,3926,4415,122.936842105263,11.6526315789474,4258,3881,-92.4526315789474,15,0,1499,1695,410,4,4,4,4,4,4,3,4,4,4,4,4,4,4,4,4
"96",4228,-88.8631578947368,4276,319.968421052632,70.5157894736842,3896,-258.715789473684,3904,4431,116.778947368421,14.2210526315789,4237,3877,-120.652631578947,16,0,1503,1691,0,4,4,4,4,4,4,3,4,4,4,4,4,4,4,4,4
"97",4233,-100.136842105263,4277,314.842105263158,69.4947368421053,3875,-251.021052631579,3896,4446,113.189473684211,21.4,4230,3885,-133.989473684211,17,0,1499,1699,0,4,4,4,4,4,4,3,4,4,4,4,4,4,4,4,4
"98",4244,-99.6315789473684,4277,316.378947368421,66.9263157894737,3876,-246.915789473684,3897,4447,112.168421052632,25.4947368421053,4231,3894,-135.526315789474,18,0,1507,1703,0,4,4,4,4,4,4,3,4,4,4,4,4,4,4,4,4
"99",4248,-102.705263157895,4282,311.757894736842,88.4631578947368,3876,-247.431578947368,3896,4457,103.452631578947,29.6,4224,3894,-144.757894736842,19,0,1511,1707,0,4,4,4,4,4,4,3,4,4,4,4,4,4,4,4,4
"100",4251,-112.957894736842,4283,299.968421052632,113.084210526316,3861,-248.968421052632,3891,4468,81.4,31.6526315789474,4211,3885,-161.684210526316,20,0,1515,1711,0,4,4,4,4,4,4,3,4,4,4,4,4,4,4,4,4
"101",4262,-109.368421052632,4281,305.094736842105,116.157894736842,3872,-247.947368421053,3897,4467,79.3473684210526,24.9894736842105,4214,3870,-157.063157894737,21,0,1515,1719,0,4,4,4,4,4,4,3,4,4,4,4,4,4,4,4,4
"102",4267,-99.1157894736842,4281,316.894736842105,103.336842105263,3895,-246.915789473684,3911,4459,92.6842105263158,19.3473684210526,4223,3872,-145.778947368421,22,0,1523,1723,0,4,4,4,4,4,4,3,4,4,4,4,4,4,4,4,4
"103",4265,-107.831578947368,4281,309.2,110.010526315789,3881,-246.4,3904,4458,82.4210526315789,25.4947368421053,4213,3887,-161.684210526316,23,0,1523,1723,0,4,4,4,4,4,4,3,4,4,4,4,4,4,4,4,4
"104",4266,-124.757894736842,4289,292.789473684211,139.231578947368,3857,-243.842105263158,3885,4465,60.3684210526316,34.2210526315789,4193,3890,-187.315789473684,24,0,1527,1731,0,4,4,4,4,4,4,3,4,4,4,4,4,4,4,4,4
"105",4259,-137.578947368421,4290,278.431578947368,148.463157894737,3852,-243.842105263158,3868,4449,51.6526315789474,26.0105263157895,4174,3875,-203.726315789474,25,0,1531,1727,0,4,4,4,4,4,4,3,4,4,4,4,4,4,4,4,4
"106",4248,-151.936842105263,4282,267.147368421053,125.905263157895,3840,-246.915789473684,3853,4412,36.7789473684211,13.7052631578947,4158,3867,-227.831578947368,26,0,1531,1735,0,4,4,4,4,4,4,3,4,4,4,4,4,4,4,4,4
"107",4249,-165.273684210526,4276,257.4,112.052631578947,3831,-250.505263157895,3847,4410,18.8315789473684,13.7052631578947,4149,3866,-247.831578947368,27,0,1535,1735,0,4,4,4,4,4,4,3,4,4,4,4,4,4,4,4,4
"108",4252,-164.757894736842,4281,256.378947368421,120.263157894737,3843,-249.484210526316,3847,4428,16.2736842105263,16.7789473684211,4144,3862,-246.294736842105,28,0,1539,1743,0,4,4,4,4,4,4,3,4,4,4,4,4,4,4,4,4
"109",4248,-163.726315789474,4282,252.789473684211,127.957894736842,3848,-245.894736842105,3843,4426,15.2421052631579,17.2947368421053,4138,3862,-249.884210526316,29,0,1543,1743,0,4,4,4,4,4,4,3,4,4,4,4,4,4,4,4,4
"110",4249,-165.273684210526,4284,250.221052631579,138.210526315789,3847,-243.842105263158,3844,4426,15.2421052631579,16.2736842105263,4137,3859,-264.242105263158,30,0,1539,1755,0,4,4,4,4,4,4,3,4,4,4,4,4,4,4,4,4
"111",4254,-165.778947368421,4282,252.789473684211,153.6,3849,-242.810526315789,3848,4426,18.8315789473684,17.2947368421053,4138,3850,-268.863157894737,31,0,1547,1755,0,4,4,4,4,4,4,3,4,4,4,4,4,4,4,4,4
"112",4248,-181.168421052632,4281,241.505263157895,166.421052631579,3827,-245.378947368421,3834,4409,3.45263157894737,17.2947368421053,4121,3850,-280.652631578947,32,0,1543,1755,0,4,4,4,4,4,4,3,4,4,4,4,4,4,4,4,4
"113",4244,-200.652631578947,4287,227.147368421053,177.189473684211,3802,-243.842105263158,3814,4404,-20.1368421052632,14.7263157894737,4098,3847,-305.273684210526,33,0,1543,1763,0,4,4,4,4,4,4,3,4,4,4,4,4,4,4,4,4
"114",4252,-195.526315789474,4286,228.168421052632,173.084210526316,3818,-242.305263157895,3820,4413,-8.86315789473684,13.7052631578947,4106,3836,-305.273684210526,34,0,1543,1763,0,4,4,4,4,4,4,3,4,4,4,4,4,4,4,4,4
"115",4249,-192.957894736842,4279,228.684210526316,145.905263157895,3831,-253.578947368421,3821,4406,-5.77894736842105,15.7578947368421,4106,3846,-303.221052631579,35,0,1543,1763,0,4,4,4,4,4,4,3,4,4,4,4,4,4,4,4,4
"116",4232,-219.631578947368,4280,205.094736842105,142.831578947368,3804,-258.2,3795,4400,-36.5473684210526,16.7789473684211,4070,3860,-331.936842105263,36,0,1543,1763,0,4,4,4,4,4,4,3,4,4,4,4,4,4,4,4,4
"117",4234,-232.957894736842,4290,192.273684210526,170.515789473684,3783,-244.357894736842,3778,4409,-43.7263157894737,20.8842105263158,4049,3853,335.863157894737,37,0,1547,1763,0,4,4,4,4,4,4,3,4,4,4,4,4,4,4,4,4
"118",4238,-240.136842105263,4290,187.147368421053,172.568421052632,3775,-246.4,3767,4428,-39.1157894736842,27.0421052631579,4044,3843,324.578947368421,38,0,1547,1767,0,4,4,4,4,4,4,3,4,4,4,4,4,4,4,4,4
"119",4229,-260.136842105263,4286,171.757894736842,178.726315789474,3759,-259.736842105263,3745,4446,-63.2210526315789,29.0842105263158,4021,3838,302.536842105263,39,0,1547,1767,0,4,4,4,4,4,4,3,4,4,4,4,4,4,4,4,4
"120",4226,-270.4,4292,164.073684210526,221.8,3758,-252.042105263158,3737,4444,-76.5473684210526,29.0842105263158,4009,3831,292.789473684211,40,0,1543,1767,0,4,4,4,4,4,4,3,4,4,4,4,4,4,4,4,4
"121",4226,-273.989473684211,4295,159.968421052632,238.210526315789,3758,-241.789473684211,3738,4438,-75.0105263157895,31.1368421052632,4007,3831,286.126315789474,41,0,1547,1771,0,4,4,4,4,4,4,3,4,4,4,4,4,4,4,4,4
"122",4221,-293.989473684211,4293,143.042105263158,213.084210526316,3731,-245.894736842105,3716,4441,-97.5789473684211,30.6315789473684,3984,3834,256.894736842105,42,0,1539,1771,0,4,4,4,4,4,4,3,4,4,4,4,4,4,4,4,4
"123",4225,-310.4,4291,128.168421052632,205.905263157895,3715,-245.378947368421,3696,4434,-113.989473684211,28.0631578947368,3965,3832,238.431578947368,43,0,1543,1771,0,4,4,4,4,4,4,3,4,4,4,4,4,4,4,4,4
"124",4231,-309.884210526316,4295,125.610526315789,219.231578947368,3719,-242.305263157895,3697,4423,-109.884210526316,29.0842105263158,3962,3830,235.347368421053,44,0,1539,1771,0,4,4,4,4,4,4,3,4,4,4,4,4,4,4,4,4
"125",4229,-313.989473684211,4296,121.505263157895,218.726315789474,3723,-241.273684210526,3696,4430,-110.4,31.1368421052632,3954,3832,225.094736842105,45,0,1535,1775,0,4,4,4,4,4,4,3,4,4,4,4,4,4,4,4,4
"126",4233,-310.915789473684,4299,124.578947368421,214.105263157895,3733,-232.557894736842,3702,4437,-107.315789473684,34.2210526315789,3961,3841,228.684210526316,46,0,1543,1775,0,4,4,4,4,4,4,3,4,4,4,4,4,4,4,4,4
"127",4231,-308.347368421053,4291,126.126315789474,220.778947368421,3734,-232.557894736842,3703,4428,-105.778947368421,32.1684210526316,3972,3841,236.378947368421,47,0,1539,1775,0,4,4,4,4,4,4,3,4,4,4,4,4,4,4,4,4
"128",4225,-308.347368421053,4288,125.610526315789,227.957894736842,3731,-237.168421052632,3700,4431,-106.294736842105,27.5473684210526,3969,3826,230.736842105263,48,0,1539,1779,0,4,4,4,4,4,4,3,4,4,4,4,4,4,4,4,4
"129",4232,-289.368421052632,4297,143.042105263158,220.778947368421,3763,-230.505263157895,3722,4450,-76.0421052631579,36.7789473684211,3988,3834,252.789473684211,49,0,1543,1779,0,4,4,4,4,4,4,3,4,4,4,4,4,4,4,4,4
"130",4239,-268.347368421053,4301,168.168421052632,180.778947368421,3796,-222.305263157895,3748,4465,-35.5263157894737,43.9578947368421,4023,3851,287.663157894737,50,0,1547,1779,0,4,4,4,4,4,4,3,4,4,4,4,4,4,4,4,4
"131",4235,-267.831578947368,4290,171.757894736842,146.926315789474,3786,-228.452631578947,3748,4461,-25.2736842105263,32.6842105263158,4029,3842,292.273684210526,51,0,1539,1779,0,4,4,4,4,4,4,3,4,4,4,4,4,4,4,4,4
"132",4230,-272.957894736842,4286,163.042105263158,173.084210526316,3774,-238.2,3738,4449,-30.4,26.0105263157895,4022,3829,282.021052631579,52,0,1547,1787,0,4,4,4,4,4,4,3,4,4,4,4,4,4,4,4,4
"133",4230,-276.547368421053,4294,159.452631578947,210.010526315789,3778,-237.684210526316,3731,4450,-31.4210526315789,34.2210526315789,4016,3836,269.715789473684,53,0,1543,1783,0,4,4,4,4,4,4,3,4,4,4,4,4,4,4,4,4
"134",4220,-293.473684210526,4290,148.684210526316,212.568421052632,3767,-232.042105263158,3715,4461,-36.0421052631579,37.8105263157895,3997,3841,250.221052631579,54,0,1539,1791,0,4,4,4,4,4,4,3,4,4,4,4,4,4,4,4,4
"135",4216,-305.273684210526,4288,139.968421052632,228.463157894737,3751,-228.452631578947,3703,4467,-38.6,33.7052631578947,3986,3823,242.536842105263,55,0,1543,1791,0,4,4,4,4,4,4,3,4,4,4,4,4,4,4,4,4
"136",4216,-306.810526315789,4289,134.326315789474,247.957894736842,3750,-233.578947368421,3698,4457,-39.6315789473684,29.6,3989,3815,244.578947368421,56,0,1539,1791,0,4,4,4,4,4,4,3,4,4,4,4,4,4,4,4,4
"137",4205,-322.18947368421,4289,121.505263157895,236.673684210526,3734,-235.631578947368,3677,4444,-58.6,32.6842105263158,3971,3829,219.452631578947,57,0,1539,1795,0,4,4,4,4,4,4,3,4,4,4,4,4,4,4,4,4
"138",4202,-344.757894736842,4292,104.578947368421,260.778947368421,3702,-227.431578947368,3651,4439,-79.6315789473684,42.4210526315789,3941,3836,188.168421052632,58,0,1539,1799,0,4,4,4,4,4,4,3,4,4,4,4,4,4,4,4,4
"139",4216,339.452631578947,4299,104.073684210526,312.568421052632,3695,-224.357894736842,3649,4447,-77.0631578947368,46.0105263157895,3937,3830,188.168421052632,59,0,1543,1799,0,4,4,4,4,4,4,3,4,4,4,4,4,4,4,4,4
"140",4223,-338.6,4299,116.378947368421,312.568421052632,3713,-225.894736842105,3668,4458,-56.0421052631579,48.0631578947368,3957,3837,205.610526315789,60,0,1539,1799,0,4,4,4,4,4,4,3,4,4,4,4,4,4,4,4,4
"141",4218,-329.368421052632,4298,122.021052631579,292.052631578947,3717,-222.810526315789,3676,4462,-48.3473684210526,58.3157894736842,3966,3861,210.736842105263,61,0,1543,1807,0,4,4,4,4,4,4,3,4,4,4,4,4,4,4,4,4
"142",4217,-343.726315789474,4306,105.094736842105,305.905263157895,3699,-219.221052631579,3663,4475,-65.7789473684211,63.9578947368421,3948,3869,193.810526315789,62,0,1539,1803,0,4,4,4,4,4,4,3,4,4,4,4,4,4,4,4,4
"143",4215,325.094736842105,4311,66.1263157894737,338.726315789474,3685,-219.221052631579,3646,4484,-85.7789473684211,62.4210526315789,3926,3865,170.736842105263,63,0,1543,1807,0,4,4,4,4,4,4,3,4,4,4,4,4,4,4,4,4
"144",4213,318.431578947368,4312,37.9157894736842,-320.873684210526,3678,-219.736842105263,3639,4465,-99.1157894736842,63.4526315789474,3917,3858,156.894736842105,64,0,1543,1807,331,4,4,4,4,4,4,3,4,4,4,4,4,4,4,4,4
"145",4218,311.252631578947,4310,31.2526315789474,-300.357894736842,3670,-223.842105263158,3635,4448,-113.989473684211,66.0105263157895,3910,3853,150.736842105263,65,0,1543,1815,433,4,4,4,4,4,4,3,4,4,4,4,4,4,4,4,4
"146",4214,293.810526315789,4312,22.0210526315789,-279.336842105263,3652,-228.968421052632,3614,4452,-131.936842105263,63.9578947368421,3891,3845,129.715789473684,66,0,1543,1815,453,4,4,4,4,4,4,3,4,4,4,4,4,4,4,4,4
"147",4200,279.452631578947,4312,2.02105263157895,-246,3634,-226.915789473684,3590,4449,-145.273684210526,62.4210526315789,3874,3836,105.610526315789,67,0,1543,1819,482,4,4,4,4,4,4,3,4,4,4,4,4,4,4,4,4
"148",4204,277.4,4315,-2.6,-230.105263157895,3635,-220.768421052632,3589,4441,-150.915789473684,72.1684210526316,3872,3843,104.073684210526,68,0,1547,1819,506,4,4,4,4,4,4,3,4,4,4,4,4,4,4,4,4
"149",4227,291.252631578947,4321,16.8947368421053,-249.073684210526,3662,-212.557894736842,3618,4452,-129.368421052632,86.0105263157895,3894,3865,129.715789473684,69,0,1547,1823,444,4,4,4,4,4,4,3,4,4,4,4,4,4,4,4,4
"150",4230,321.505263157895,4319,42.5368421052632,-303.947368421053,3693,-214.610526315789,3650,4462,-92.4526315789474,78.3157894736842,3929,3871,162.021052631579,70,0,1551,1827,463,4,4,4,4,4,4,3,4,4,4,4,4,4,4,4,4
"151",4216,337.4,4310,54.8421052631579,319.231578947368,3709,-226.915789473684,3663,4458,-78.0947368421053,63.4526315789474,3944,3865,172.789473684211,71,0,1551,1831,450,4,4,4,4,4,4,3,4,4,4,4,4,4,4,4,4
"152",4228,-337.578947368421,4311,70.7368421052632,290.010526315789,3746,-226.915789473684,3684,4463,-62.7052631578947,71.1368421052632,3959,3877,192.273684210526,72,0,1551,1835,456,4,4,4,4,4,4,3,4,4,4,4,4,4,4,4,4
"153",4192,324.073684210526,4294,43.5578947368421,207.957894736842,3728,-264.357894736842,3651,4422,-96.5473684210526,41.4,3925,3832,162.021052631579,73,0,1551,1835,470,4,4,4,4,4,4,3,4,4,4,4,4,4,4,4,4
"154",4061,172.273684210526,4227,-97.4631578947368,-7.94736842105263,3560,316.778947368421,3482,4312,-269.884210526316,-62.1894736842105,3746,3669,-13.3684210526316,74,0,1551,1839,506,4,4,4,4,4,4,3,4,4,4,4,4,4,4,4,4
"155",3976,23.5578947368421,4178,-228.242105263158,-176.663157894737,3410,244.989473684211,3317,4244,251.252631578947,-142.189473684211,3566,3532,-192.336842105263,75,0,1555,1839,411,4,4,4,4,4,4,3,4,4,4,4,4,4,4,4,4
"156",4012,26.1263157894737,4188,-225.157894736842,-154.094736842105,3436,266.526315789474,3318,4273,255.347368421053,-130.915789473684,3561,3543,-196.442105263158,76,0,1555,1851,454,4,4,4,4,4,4,3,4,4,4,4,4,4,4,4,4
"157",4060,92.7894736842105,4209,-169.263157894737,-88.4526315789474,3523,303.957894736842,3392,4315,325.094736842105,-91.9368421052632,3637,3610,-119.010526315789,77,0,1555,1851,383,4,4,4,4,4,4,3,4,4,4,4,4,4,4,4,4
"158",4071,119.452631578947,4211,-145.673684210526,-81.2736842105263,3562,314.221052631579,3430,4328,-337.063157894737,-79.6315789473684,3675,3639,-79.5157894736842,78,0,1559,1847,506,4,4,4,4,4,4,3,4,4,4,4,4,4,4,4,4
"159",4096,151.252631578947,4223,-114.905263157895,-69.4842105263158,3603,329.6,3467,4340,-304.242105263158,-68.8631578947368,3713,3665,-37.4631578947368,79,0,1555,1851,411,4,4,4,4,4,4,3,4,4,4,4,4,4,4,4,4
"160",4124,203.042105263158,4234,-68.7473684210526,-43.8421052631579,3669,-339.736842105263,3521,4354,-256.547368421053,-51.4210526315789,3772,3695,21.5052631578947,80,0,1559,1851,454,4,4,4,4,4,4,3,4,4,4,4,4,4,4,4,4
"161",4133,245.610526315789,4236,-31.3157894736842,-33.5789473684211,3728,-332.557894736842,3570,4363,-220.136842105263,-46.8105263157895,3823,3696,70.7368421052632,81,0,1555,1851,383,4,4,4,4,4,4,3,4,4,4,4,4,4,4,4,4
"162",4130,260.989473684211,4238,-17.4631578947368,-29.9894736842105,3752,-338.2,3585,4367,-200.136842105263,-47.8315789473684,3844,3703,95.3473684210526,82,0,1559,1855,506,4,4,4,4,4,4,3,4,4,4,4,4,4,4,4,4
"163",4121,251.757894736842,4243,-26.6947368421053,-19.7368421052632,3752,-334.610526315789,3575,4368,-204.242105263158,-34.5052631578947,3835,3737,89.2,83,0,1563,1847,411,4,4,4,4,4,4,3,4,4,4,4,4,4,4,4,4
"164",4135,269.715789473684,4252,-11.3157894736842,2.31578947368421,3784,-310.505263157895,3600,4379,-195.010526315789,-16.5473684210526,3852,3759,102.536842105263,84,0,1555,1855,454,4,4,4,4,4,4,3,4,4,4,4,4,4,4,4,4
"165",4156,311.757894736842,4255,25.6105263157895,11.5473684210526,3839,-300.252631578947,3650,4387,-157.578947368421,-16.0421052631579,3900,3752,150.221052631579,85,0,1563,1855,383,4,4,4,4,4,4,3,4,4,4,4,4,4,4,4,4
"166",4154,329.715789473684,4255,42.0210526315789,-0.768421052631579,3862,-302.810526315789,3669,4383,-137.578947368421,-18.0947368421053,3925,3758,180.989473684211,86,0,1563,1855,506,4,4,4,4,4,4,3,4,4,4,4,4,4,4,4,4
"167",4155,336.378947368421,4259,45.0947368421053,-1.27368421052632,3871,-292.042105263158,3678,4385,-131.936842105263,-8.86315789473684,3934,3773,191.757894736842,87,0,1563,1859,411,4,4,4,4,4,4,3,4,4,4,4,4,4,4,4,4
"168",4171,-336.547368421053,4265,64.5789473684211,10.5157894736842,3893,-282.810526315789,3703,4382,-113.989473684211,-5.27368421052632,3953,3771,211.252631578947,88,0,1559,1863,454,4,4,4,4,4,4,3,4,4,4,4,4,4,4,4,4
"169",4168,-328.863157894737,4259,77.4,-5.37894736842105,3904,-287.431578947368,3716,4378,-101.684210526316,-9.88421052631579,3965,3773,226.631578947368,89,0,1567,1863,383,4,4,4,4,4,4,3,4,4,4,4,4,4,4,4,4
"170",4154,-331.421052631579,4255,71.2526315789474,-38.2,3894,-292.557894736842,3713,4391,-107.315789473684,-6.81052631578947,3963,3789,226.126315789474,90,0,1559,1863,506,4,4,4,4,4,4,3,4,4,4,4,4,4,4,4,4
"171",4162,-320.136842105263,4256,77.9157894736842,-43.8421052631579,3898,-289.989473684211,3719,4398,-97.5789473684211,-1.68421052631579,3972,3792,238.431578947368,91,0,1567,1863,411,4,4,4,4,4,4,3,4,4,4,4,4,4,4,4,4
"172",4173,-306.294736842105,4257,93.3052631578947,-29.9894736842105,3912,-282.810526315789,3734,4391,-79.1157894736842,-4.7578947368421,3988,3784,260.484210526316,92,0,1571,1859,454,4,4,4,4,4,4,3,4,4,4,4,4,4,4,4,4
"173",4169,-307.315789473684,4260,93.8105263157895,-29.9894736842105,3909,-276.147368421053,3737,4387,-80.6526315789474,-4.7578947368421,3992,3790,267.147368421053,93,0,1567,1863,383,4,4,4,4,4,4,3,4,4,4,4,4,4,4,4,4
"174",4169,-298.6,4263,98.9368421052632,-35.1263157894737,3919,-275.126315789474,3747,4389,-76.0421052631579,-1.16842105263158,4003,3806,278.936842105263,94,0,1567,1863,506,4,4,4,4,4,4,3,4,4,4,4,4,4,4,4,4
"175",4171,-279.631578947368,4263,111.252631578947,-39.7368421052632,3941,-274.094736842105,3763,4389,-63.2210526315789,1.4,4018,3818,300.989473684211,95,0,1571,1863,411,4,4,4,4,4,4,3,4,4,4,4,4,4,4,4,4
"176",4169,-277.063157894737,4261,110.736842105263,-49.9894736842105,3943,-271.536842105263,3767,4394,-60.1368421052632,1.4,4018,3816,304.578947368421,96,0,1571,1855,454,4,4,4,4,4,4,3,4,4,4,4,4,4,4,4,4
"177",4173,-270.915789473684,4262,115.863157894737,-45.3789473684211,3948,-271.536842105263,3772,4395,-48.3473684210526,-2.70526315789474,4024,3802,309.715789473684,97,0,1563,1863,383,4,4,4,4,4,4,3,4,4,4,4,4,4,4,4,4
"178",4174,-259.631578947368,4262,128.168421052632,-38.2,3961,-274.094736842105,3784,4387,-31.9368421052632,-1.68421052631579,4036,3813,329.2,98,0,1575,1863,506,4,4,4,4,4,4,3,4,4,4,4,4,4,4,4,4
"179",4175,-260.136842105263,4265,130.221052631579,-47.4315789473684,3963,-272.557894736842,3788,4387,-34.5052631578947,8.57894736842105,4039,3833,338.431578947368,99,0,1567,1859,411,4,4,4,4,4,4,3,4,4,4,4,4,4,4,4,4
"180",4183,-256.547368421053,4263,135.863157894737,-45.8947368421053,3969,-265.894736842105,3797,4394,-24.2421052631579,12.1684210526316,4048,3828,-343.221052631579,100,0,1567,1863,454,4,4,4,4,4,4,3,4,4,4,4,4,4,4,4,4
"181",4190,-243.221052631579,4265,150.221052631579,-41.2736842105263,3982,-266.4,3814,4400,-0.652631578947368,11.1368421052632,4063,3828,-326.810526315789,101,0,1567,1863,383,4,4,4,4,4,4,3,4,4,4,4,4,4,4,4,4
"182",4194,-239.631578947368,4269,156.378947368421,-57.1684210526316,3986,-273.073684210526,3821,4408,0.368421052631579,19.8631578947368,4068,3852,-317.063157894737,102,0,1563,1859,506,4,4,4,4,4,4,3,4,4,4,4,4,4,4,4,4
"183",4204,-231.421052631579,4268,165.610526315789,-65.8947368421053,3996,-272.042105263158,3834,4415,1.90526315789474,23.9578947368421,4076,3855,-304.242105263158,103,0,1563,1855,411,4,4,4,4,4,4,3,4,4,4,4,4,4,4,4,4
"184",4201,-218.6,4264,174.326315789474,-57.1684210526316,4010,-271.536842105263,3851,4416,20.3684210526316,15.2421052631579,4093,3841,-281.168421052632,104,0,1563,1859,454,4,4,4,4,4,4,3,4,4,4,4,4,4,4,4,4
"185",4184,-219.631578947368,4263,172.273684210526,-74.0947368421053,4002,-276.147368421053,3847,4413,19.8631578947368,18.8315789473684,4092,3852,-276.547368421053,105,0,1563,1847,383,4,4,4,4,4,4,3,4,4,4,4,4,4,4,4,4
"186",4183,-217.063157894737,4265,178.431578947368,-110.505263157895,4002,-275.631578947368,3849,4402,15.2421052631579,27.0421052631579,4092,3863,-273.989473684211,106,0,1551,1851,506,4,4,4,4,4,4,3,4,4,4,4,4,4,4,4,4
"187",4192,-206.294736842105,4265,194.842105263158,-119.736842105263,4022,-271.536842105263,3869,4393,34.7263157894737,23.4526315789474,4111,3859,-256.042105263158,107,0,1559,1843,411,4,4,4,4,4,4,3,4,4,4,4,4,4,4,4,4
"188",4191,-211.936842105263,4265,189.715789473684,-116.147368421053,4014,-271.536842105263,3866,4402,40.3684210526316,24.9894736842105,4108,3866,-257.578947368421,108,0,1551,1843,454,4,4,4,4,4,4,3,4,4,4,4,4,4,4,4,4
"189",4184,-219.631578947368,4265,176.894736842105,-137.168421052632,3991,-275.631578947368,3851,4401,23.9578947368421,31.1368421052632,4092,3881,-265.273684210526,109,0,1551,1843,383,4,4,4,4,4,4,3,4,4,4,4,4,4,4,4,4
"190",4183,-214.505263157895,4265,187.147368421053,-162.810526315789,3992,-280.768421052632,3859,4398,21.9052631578947,30.1157894736842,4101,3881,-249.884210526316,110,0,1547,1839,506,4,4,4,4,4,4,3,4,4,4,4,4,4,4,4,4
"191",4184,-210.915789473684,4262,192.273684210526,-168.452631578947,4003,-280.252631578947,3869,4419,32.6842105263158,28.5789473684211,4112,3875,-237.578947368421,111,0,1547,1839,411,4,4,4,4,4,4,3,4,4,4,4,4,4,4,4,4
"192",4181,-211.421052631579,4261,186.126315789474,-175.631578947368,3991,-278.715789473684,3864,4423,36.2736842105263,27.5473684210526,4103,3874,-243.726315789474,112,0,1543,1835,454,4,4,4,4,4,4,3,4,4,4,4,4,4,4,4,4
"193",4172,-221.684210526316,4260,180.484210526316,-202.305263157895,3964,-286.915789473684,3852,4401,22.9368421052632,20.3684210526316,4091,3864,-248.863157894737,113,0,1543,1839,383,4,4,4,4,4,4,3,4,4,4,4,4,4,4,4,4
"194",4186,-209.368421052632,4267,196.894736842105,-191.536842105263,3977,-276.147368421053,3868,4403,34.7263157894737,29.0842105263158,4110,3875,-223.221052631579,114,0,1539,1835,506,4,4,4,4,4,4,3,4,4,4,4,4,4,4,4,4
"195",4198,-188.347368421053,4269,211.252631578947,-159.736842105263,3998,-264.357894736842,3893,4405,66.0105263157895,37.8105263157895,4134,3891,-199.631578947368,115,0,1539,1835,411,4,4,4,4,4,4,3,4,4,4,4,4,4,4,4,4
"196",4158,-233.989473684211,4253,168.684210526316,-203.842105263158,3934,-294.610526315789,3843,4375,24.9894736842105,14.2210526315789,4080,3853,-256.547368421053,116,0,1539,1835,454,4,4,4,4,4,4,3,4,4,4,4,4,4,4,4,4
"197",4235,-156.547368421053,4287,247.663157894737,-145.894736842105,4019,-236.147368421053,3925,4460,113.189473684211,67.0421052631579,4171,3941,-154.505263157895,117,0,1539,1839,383,4,4,4,4,4,4,3,4,4,4,4,4,4,4,4,4
"198",4445,154.221052631579,4381,-162.189473684211,108.978947368421,4376,-72.0421052631579,4263,4634,-231.021052631579,217.810526315789,4540,4204,231.136842105263,118,0,1535,1843,506,4,4,4,4,4,4,3,4,4,4,4,4,4,4,4,4
"199",4488,316.273684210526,4409,-23.7263157894737,215.136842105263,4556,-35.6315789473684,4443,4653,-45.3789473684211,270.631578947368,4746,4305,-251.021052631579,119,0,1539,1839,411,4,4,4,4,4,4,3,4,4,4,4,4,4,4,4,4
"200",4352,182.421052631579,4357,-145.273684210526,67.9578947368421,4388,-139.221052631579,4297,4549,-192.557894736842,196.273684210526,4598,4178,289.084210526316,120,0,1531,1843,454,4,4,4,4,4,4,3,4,4,4,4,4,4,4,4,4
"201",4308,99.3473684210526,4335,-218.6,-23.8421052631579,4274,-172.557894736842,4201,4527,-295.126315789474,162.936842105263,4492,4116,187.042105263158,121,0,1527,1851,383,4,4,4,4,4,4,3,4,4,4,4,4,4,4,4,4
"202",4338,137.810526315789,4345,-184.242105263158,-9.98947368421053,4311,-151.021052631579,4243,4549,-248.968421052632,176.778947368421,4537,4137,236.778947368421,122,0,1527,1843,506,4,4,4,4,4,4,3,4,4,4,4,4,4,4,4,4
"203",4314,122.936842105263,4333,-195.526315789474,-46.9157894736842,4289,-176.663157894737,4228,4521,-258.715789473684,156.778947368421,4524,4107,226.010526315789,123,0,1523,1851,411,4,4,4,4,4,4,3,4,4,4,4,4,4,4,4,4
"204",4294,97.2947368421053,4322,-217.063157894737,-88.9684210526316,4250,-191.021052631579,4201,4511,-296.663157894737,141.4,4493,4086,198.315789473684,124,0,1527,1855,454,4,4,4,4,4,4,3,4,4,4,4,4,4,4,4,4
"205",4306,105.494736842105,4323,-209.884210526316,-103.326315789474,4257,-182.810526315789,4212,4521,-297.168421052632,142.421052631579,4504,4090,208.578947368421,125,0,1527,1855,383,4,4,4,4,4,4,3,4,4,4,4,4,4,4,4,4
"206",4312,106.526315789474,4318,-205.778947368421,-119.221052631579,4262,-185.894736842105,4214,4508,-296.663157894737,136.778947368421,4501,4078,206.526315789474,126,0,1531,1859,506,4,4,4,4,4,4,3,4,4,4,4,4,4,4,4,4
"207",4312,105.494736842105,4319,-199.115789473684,-125.378947368421,4254,-182.305263157895,4216,4499,-299.221052631579,140.368421052632,4495,4085,209.6,127,0,1527,1863,411,4,4,4,4,4,4,3,4,4,4,4,4,4,4,4,4
"208",4310,93.7052631578947,4323,-203.726315789474,-131.536842105263,4235,-169.989473684211,4211,4507,-309.989473684211,149.6,4488,4101,209.6,128,0,1535,1863,454,4,4,4,4,4,4,4,4,4,4,4,4,4,4,4,4
"209",4318,92.6842105263158,4327,-208.347368421053,-130.505263157895,4232,-160.768421052632,4209,4521,-310.505263157895,156.273684210526,4489,4111,210.631578947368,0,0,1531,1863,337,4,4,4,4,4,4,3,4,4,4,4,4,4,4,4,4
"210",4328,103.452631578947,4331,-199.631578947368,-126.4,4241,-158.2,4217,4527,-300.768421052632,161.4,4498,4119,220.368421052632,1,0,1531,1871,438,4,4,4,4,4,4,3,4,4,4,4,4,4,4,4,4
"211",4340,119.863157894737,4336,-182.705263157895,-113.578947368421,4258,-147.431578947368,4242,4531,-280.768421052632,169.6,4518,4134,243.452631578947,2,0,1535,1867,462,4,4,4,4,4,4,3,4,4,4,4,4,4,4,4,4
"212",4358,146.526315789474,4345,-161.168421052632,-94.6105263157895,4288,-136.147368421053,4276,4543,-251.021052631579,175.757894736842,4549,4142,279.863157894737,3,0,1531,1871,490,4,4,4,4,4,4,3,4,4,4,4,4,4,4,4,4
"213",4361,158.831578947368,4344,-153.473684210526,-93.0736842105263,4301,-137.168421052632,4288,4542,-238.2,172.684210526316,4565,4143,299.863157894737,4,0,1531,1875,513,4,4,4,4,4,4,3,4,4,4,4,4,4,4,4,4
"214",4351,145.494736842105,4339,-162.705263157895,-110.505263157895,4279,-141.273684210526,4272,4527,-248.968421052632,175.757894736842,4553,4152,288.578947368421,5,0,1535,1879,448,4,4,4,4,4,4,3,4,4,4,4,4,4,4,4,4
"215",4345,128.578947368421,4337,-177.063157894737,-117.168421052632,4254,-144.357894736842,4254,4521,-266.915789473684,181.4,4532,4158,272.168421052632,6,0,1535,1879,471,4,4,4,4,4,4,3,4,4,4,4,4,4,4,4,4
"216",4344,122.421052631579,4338,-183.221052631579,-116.147368421053,4240,-147.431578947368,4247,4525,-277.168421052632,175.242105263158,4519,4148,267.547368421053,7,0,1531,1883,453,4,4,4,4,4,4,3,4,4,4,4,4,4,4,4,4
"217",4343,121.4,4333,-183.221052631579,-133.578947368421,4232,-147.947368421053,4245,4524,-272.042105263158,167.042105263158,4523,4143,274.726315789474,8,0,1543,1883,457,4,4,4,4,4,4,3,4,4,4,4,4,4,4,4,4
"218",4343,125.494736842105,4329,-181.168421052632,-158.2,4232,-148.452631578947,4250,4520,-256.663157894737,173.705263157895,4535,4152,288.063157894737,9,0,1539,1883,470,4,4,4,4,4,4,3,4,4,4,4,4,4,4,4,4
"219",4342,124.989473684211,4330,-181.684210526316,-162.810526315789,4231,-150.505263157895,4252,4525,-252.042105263158,179.863157894737,4534,4157,286.526315789474,10,0,1539,1883,511,4,4,4,4,4,4,3,4,4,4,4,4,4,4,4,4
"220",4342,122.421052631579,4330,-182.189473684211,-162.305263157895,4230,-150.505263157895,4250,4530,-258.715789473684,173.705263157895,4522,4147,277.810526315789,11,0,1543,1879,413,4,4,4,4,4,4,3,4,4,4,4,4,4,4,4,4
"221",4346,124.989473684211,4330,-176.547368421053,-173.073684210526,4234,-151.536842105263,4255,4519,-256.663157894737,172.168421052632,4527,4140,286.526315789474,12,0,1543,1875,454,4,4,4,4,4,4,3,4,4,4,4,4,4,4,4,4
"222",4350,130.115789473684,4330,-168.863157894737,-179.736842105263,4236,-148.452631578947,4267,4508,-247.947368421053,181.4,4541,4154,304.989473684211,13,0,1543,1875,388,4,4,4,4,4,4,3,4,4,4,4,4,4,4,4,4
"223",4353,137.810526315789,4332,-164.242105263158,-185.378947368421,4236,-141.789473684211,4278,4523,-243.326315789474,188.063157894737,4543,4170,313.705263157895,14,0,1547,1875,511,4,4,4,4,4,4,3,4,4,4,4,4,4,4,4,4
"224",4355,142.421052631579,4332,-162.189473684211,-193.578947368421,4238,-141.789473684211,4284,4543,-232.557894736842,187.547368421053,4544,4165,321.905263157895,15,0,1547,1867,413,4,4,4,4,4,4,3,4,4,4,4,4,4,4,4,4
"225",4352,144.989473684211,4332,-161.168421052632,-194.094736842105,4233,-146.4,4284,4527,-223.842105263158,182.421052631579,4549,4152,329.084210526316,16,0,1547,1875,0,4,4,4,4,4,4,3,4,4,4,4,4,4,4,4,4
"226",4343,134.221052631579,4324,-167.315789473684,-205.378947368421,4214,-154.094736842105,4274,4505,-238.2,174.221052631579,4541,4143,320.884210526316,17,0,1551,1871,0,4,4,4,4,4,4,3,4,4,4,4,4,4,4,4,4
"227",4329,113.189473684211,4316,-180.136842105263,-231.536842105263,4190,-167.947368421053,4259,4512,-258.715789473684,169.084210526316,4520,4134,303.957894736842,18,0,1551,1871,0,4,4,4,4,4,4,3,4,4,4,4,4,4,4,4,4
"228",4327,103.452631578947,4319,-191.421052631579,-245.378947368421,4173,-173.073684210526,4246,4522,-262.810526315789,172.684210526316,4505,4140,295.242105263158,19,0,1551,1875,0,4,4,4,4,4,4,3,4,4,4,4,4,4,4,4,4
"229",4336,108.578947368421,4324,-185.778947368421,-247.947368421053,4168,-164.863157894737,4245,4524,-256.147368421053,178.315789473684,4506,4155,301.4,20,0,1551,1871,0,4,4,4,4,4,4,3,4,4,4,4,4,4,4,4,4
"230",4343,110.115789473684,4323,-177.063157894737,-259.736842105263,4174,-163.842105263158,4255,4517,-253.578947368421,178.315789473684,4510,4153,307.547368421053,21,0,1555,1871,0,4,4,4,4,4,4,3,4,4,4,4,4,4,4,4,4
"231",4347,111.136842105263,4322,-176.547368421053,-263.842105263158,4183,-172.042105263158,4264,4496,-255.631578947368,177.810526315789,4511,4141,308.578947368421,22,0,1555,1863,0,4,4,4,4,4,4,3,4,4,4,4,4,4,4,4,4
"232",4351,112.684210526316,4323,-180.652631578947,-251.536842105263,4177,-176.147368421053,4262,4493,-259.221052631579,178.831578947368,4509,4144,306.010526315789,23,0,1559,1859,0,4,4,4,4,4,4,3,4,4,4,4,4,4,4,4,4
"233",4346,100.884210526316,4319,-193.989473684211,-251.021052631579,4161,-178.2,4243,4513,-276.663157894737,180.884210526316,4496,4155,292.168421052632,24,0,1555,1859,0,4,4,4,4,4,4,3,4,4,4,4,4,4,4,4,4
"234",4338,77.2947368421053,4317,-210.915789473684,-273.578947368421,4140,-180.768421052632,4221,4510,-306.915789473684,180.884210526316,4470,4156,268.578947368421,25,0,1559,1851,0,4,4,4,4,4,4,3,4,4,4,4,4,4,4,4,4
"235",4339,59.8631578947368,4315,-219.631578947368,-291.021052631579,4121,-182.810526315789,4213,4490,-326.4,177.294736842105,4454,4145,251.652631578947,26,0,1559,1851,0,4,4,4,4,4,4,3,4,4,4,4,4,4,4,4,4
"236",4345,64.9894736842105,4311,-213.473684210526,-291.536842105263,4116,-186.915789473684,4218,4493,-322.810526315789,170.115789473684,4456,4133,258.315789473684,27,0,1563,1843,0,4,4,4,4,4,4,3,4,4,4,4,4,4,4,4,4
"237",4345,72.6842105263158,4307,-210.915789473684,-296.147368421053,4124,-188.452631578947,4219,4497,-313.073684210526,169.084210526316,4462,4134,273.18947368421,28,0,1555,1843,0,4,4,4,4,4,4,3,4,4,4,4,4,4,4,4,4
"238",4343,66.0105263157895,4313,-215.010526315789,-313.073684210526,4127,-188.452631578947,4215,4488,-307.947368421053,173.189473684211,4459,4137,270.115789473684,29,0,1563,1839,0,4,4,4,4,4,4,3,4,4,4,4,4,4,4,4,4
"239",4346,60.3684210526316,4311,-215.526315789474,-325.894736842105,4121,-193.073684210526,4217,4489,-306.915789473684,171.652631578947,4451,4130,261.905263157895,30,0,1563,1831,0,4,4,4,4,4,4,3,4,4,4,4,4,4,4,4,4
"240",4353,60.8842105263158,4306,-213.473684210526,-334.094736842105,4107,-195.631578947368,4216,4491,-316.147368421053,169.6,4444,4130,260.884210526316,31,0,1559,1835,0,4,4,4,4,4,4,3,4,4,4,4,4,4,4,4,4
"241",4354,55.2421052631579,4306,-215.010526315789,-337.168421052632,4095,-193.578947368421,4207,4490,-323.326315789474,171.652631578947,4444,4134,263.452631578947,32,0,1563,1831,0,4,4,4,4,4,4,3,4,4,4,4,4,4,4,4,4
"242",4351,46.5263157894737,4305,-221.168421052632,-343.326315789474,4086,-197.168421052632,4197,4490,-321.789473684211,171.136842105263,4438,4135,253.705263157895,33,0,1567,1827,0,4,4,4,4,4,4,3,4,4,4,4,4,4,4,4,4
"243",4349,27.5473684210526,4298,-236.042105263158,332.684210526316,4064,-205.894736842105,4179,4482,-331.021052631579,170.115789473684,4411,4135,226.526315789474,34,0,1567,1823,0,4,4,4,4,4,4,3,4,4,4,4,4,4,4,4,4
"244",4353,13.1894736842105,4298,-245.778947368421,329.6,4052,-205.894736842105,4170,4469,343.452631578947,170.115789473684,4394,4130,214.726315789474,35,0,1567,1823,0,4,4,4,4,4,4,3,4,4,4,4,4,4,4,4,4
"245",4368,28.0631578947368,4300,-232.957894736842,332.684210526316,4070,-200.768421052632,4189,4474,-331.536842105263,169.084210526316,4414,4119,242.421052631579,36,0,1571,1815,0,4,4,4,4,4,4,3,4,4,4,4,4,4,4,4,4
"246",4378,43.4526315789474,4298,-218.6,324.473684210526,4085,-199.221052631579,4208,4490,-305.378947368421,169.6,4434,4117,259.347368421053,37,0,1567,1815,0,4,4,4,4,4,4,3,4,4,4,4,4,4,4,4,4
"247",4376,32.6842105263158,4301,-225.273684210526,316.778947368421,4073,-199.221052631579,4202,4492,-309.989473684211,172.684210526316,4422,4129,240.368421052632,38,0,1571,1815,0,4,4,4,4,4,4,3,4,4,4,4,4,4,4,4,4
"248",4372,21.4,4303,-237.063157894737,321.4,4061,-197.684210526316,4194,4479,-324.863157894737,175.242105263158,4409,4135,230.631578947368,39,0,1571,1807,0,4,4,4,4,4,4,3,4,4,4,4,4,4,4,4,4
"249",4375,22.4210526315789,4302,-237.063157894737,315.757894736842,4061,-198.715789473684,4191,4472,-329.484210526316,173.705263157895,4407,4127,232.684210526316,40,0,1571,1807,0,4,4,4,4,4,4,3,4,4,4,4,4,4,4,4,4
"250",4381,19.3473684210526,4298,-231.936842105263,302.936842105263,4062,-205.894736842105,4188,4476,-335.126315789474,171.136842105263,4404,4121,228.578947368421,41,0,1571,1803,0,4,4,4,4,4,4,3,4,4,4,4,4,4,4,4,4
"251",4385,16.2736842105263,4300,-225.778947368421,300.884210526316,4056,-211.021052631579,4189,4472,-344.863157894737,172.684210526316,4399,4124,223.452631578947,42,0,1571,1803,0,4,4,4,4,4,4,3,4,4,4,4,4,4,4,4,4
"252",4383,8.57894736842105,4293,-229.884210526316,298.315789473684,4039,-211.536842105263,4180,4460,334.726315789474,168.063157894737,4389,4114,215.242105263158,43,0,1571,1799,0,4,4,4,4,4,4,3,4,4,4,4,4,4,4,4,4
"253",4380,-0.652631578947368,4290,-239.631578947368,284.473684210526,4026,-214.094736842105,4169,4455,320.368421052632,160.368421052632,4376,4099,202.936842105263,44,0,1571,1803,0,4,4,4,4,4,4,3,4,4,4,4,4,4,4,4,4
"254",4379,-6.29473684210526,4289,-247.831578947368,265.494736842105,4020,-218.2,4166,4458,308.063157894737,162.936842105263,4368,4109,196.778947368421,45,0,1575,1791,0,4,4,4,4,4,4,3,4,4,4,4,4,4,4,4,4
"255",4379,-10.9157894736842,4290,-251.421052631579,253.705263157895,4014,-222.305263157895,4159,4466,301.905263157895,169.084210526316,4367,4119,195.242105263158,46,0,1571,1795,0,4,4,4,4,4,4,3,4,4,4,4,4,4,4,4,4
"256",4385,-17.0631578947368,4290,-250.915789473684,252.168421052632,4006,-224.863157894737,4151,4457,293.705263157895,166.010526315789,4363,4115,190.631578947368,47,0,1571,1795,0,4,4,4,4,4,4,3,4,4,4,4,4,4,4,4,4
"257",4390,-21.1684210526316,4287,-256.042105263158,253.189473684211,3998,-226.915789473684,4151,4439,281.4,160.368421052632,4357,4104,187.547368421053,48,0,1571,1791,0,4,4,4,4,4,4,3,4,4,4,4,4,4,4,4,4
"258",4393,-21.1684210526316,4282,-259.631578947368,248.063157894737,3994,-227.947368421053,4153,4446,273.705263157895,155.242105263158,4350,4088,179.863157894737,49,0,1567,1791,0,4,4,4,4,4,4,3,4,4,4,4,4,4,4,4,4
"259",4397,-29.8842105263158,4280,-261.168421052632,242.936842105263,3989,-228.968421052632,4151,4455,272.684210526316,154.221052631579,4344,4087,168.578947368421,50,0,1567,1787,0,4,4,4,4,4,4,3,4,4,4,4,4,4,4,4,4
"260",4406,-33.9894736842105,4288,-261.684210526316,239.347368421053,3986,-226.4,4151,4449,272.168421052632,160.368421052632,4342,4104,172.684210526316,51,0,1571,1787,0,4,4,4,4,4,4,3,4,4,4,4,4,4,4,4,4
"261",4409,-28.8631578947368,4287,-259.631578947368,235.757894736842,3988,-225.894736842105,4149,4453,280.368421052632,162.421052631579,4352,4112,186.010526315789,52,0,1567,1787,0,4,4,4,4,4,4,3,4,4,4,4,4,4,4,4,4
"262",4407,-26.8105263157895,4286,-255.526315789474,232.168421052632,3991,-227.947368421053,4150,4452,286.010526315789,158.831578947368,4361,4102,188.063157894737,53,0,1567,1787,0,4,4,4,4,4,4,3,4,4,4,4,4,4,4,4,4
"263",4407,-29.3684210526316,4285,-256.042105263158,229.6,3991,-228.452631578947,4153,4437,282.421052631579,157.294736842105,4355,4092,184.473684210526,54,0,1571,1787,0,4,4,4,4,4,4,3,4,4,4,4,4,4,4,4,4
"264",4408,-31.4210526315789,4282,-260.136842105263,228.063157894737,3976,-229.484210526316,4143,4438,275.757894736842,156.273684210526,4345,4087,180.884210526316,55,0,1563,1791,0,4,4,4,4,4,4,3,4,4,4,4,4,4,4,4,4
"265",4410,-38.0947368421053,4278,-266.294736842105,224.473684210526,3960,-232.557894736842,4129,4443,273.705263157895,155.242105263158,4339,4082,170.115789473684,56,0,1571,1791,0,4,4,4,4,4,4,3,4,4,4,4,4,4,4,4,4
"266",4413,-44.7578947368421,4281,-266.810526315789,222.421052631579,3958,-234.094736842105,4134,4438,273.705263157895,156.778947368421,4337,4082,160.368421052632,57,0,1567,1795,0,4,4,4,4,4,4,3,4,4,4,4,4,4,4,4,4
"267",4415,-46.8105263157895,4284,-265.778947368421,215.242105263158,3961,-235.126315789474,4142,4436,260.884210526316,157.810526315789,4334,4092,158.315789473684,58,0,1567,1799,0,4,4,4,4,4,4,3,4,4,4,4,4,4,4,4,4
"268",4412,-47.8315789473684,4281,-270.915789473684,207.042105263158,3960,-235.126315789474,4138,4433,242.936842105263,160.884210526316,4330,4103,162.936842105263,59,0,1567,1799,0,4,4,4,4,4,4,3,4,4,4,4,4,4,4,4,4
"269",4413,-49.8842105263158,4278,-277.063157894737,213.189473684211,3961,-234.610526315789,4132,4437,237.294736842105,161.905263157895,4327,4096,163.957894736842,60,0,1567,1803,0,4,4,4,4,4,4,3,4,4,4,4,4,4,4,4,4
"270",4413,-59.1157894736842,4278,-283.726315789474,220.368421052632,3948,-239.221052631579,4122,4446,241.905263157895,157.810526315789,4319,4081,151.136842105263,61,0,1567,1807,0,4,4,4,4,4,4,3,4,4,4,4,4,4,4,4,4
"271",4409,-72.9578947368421,4280,-285.273684210526,212.168421052632,3921,-242.305263157895,4107,4430,236.273684210526,154.726315789474,4305,4075,133.189473684211,62,0,1567,1811,0,4,4,4,4,4,4,3,4,4,4,4,4,4,4,4,4
"272",4398,-83.7263157894737,4273,-287.315789473684,198.315789473684,3906,-246.4,4097,4411,226.010526315789,148.063157894737,4293,4069,126.010526315789,63,0,1571,1811,0,4,4,4,4,4,4,3,4,4,4,4,4,4,4,4,4
"273",4396,-83.7263157894737,4266,-289.368421052632,186.010526315789,3901,-253.073684210526,4093,4419,226.010526315789,144.473684210526,4291,4065,124.989473684211,64,0,1567,1815,337,4,4,4,4,4,4,3,4,4,4,4,4,4,4,4,4
"274",4398,-82.7052631578947,4267,-292.957894736842,179.347368421053,3895,-256.663157894737,4092,4433,225.494736842105,151.136842105263,4291,4072,123.957894736842,65,0,1567,1819,438,4,4,4,4,4,4,3,4,4,4,4,4,4,4,4,4
"275",4390,-85.2736842105263,4269,-291.936842105263,187.042105263158,3894,-255.631578947368,4091,4431,216.273684210526,152.684210526316,4287,4078,124.989473684211,66,0,1571,1815,461,4,4,4,4,4,4,3,4,4,4,4,4,4,4,4,4
"276",4387,-91.9368421052632,4266,-293.473684210526,185.494736842105,3896,-256.147368421053,4087,4416,206.010526315789,141.4,4279,4068,121.4,67,0,1563,1823,496,4,4,4,4,4,4,3,4,4,4,4,4,4,4,4,4
"277",4398,-89.8842105263158,4264,-289.368421052632,170.115789473684,3898,-258.715789473684,4092,4408,212.168421052632,137.810526315789,4286,4058,124.989473684211,68,0,1567,1831,513,4,4,4,4,4,4,3,4,4,4,4,4,4,4,4,4
"278",4396,-85.2736842105263,4263,-283.726315789474,172.684210526316,3898,-258.715789473684,4098,4413,222.936842105263,142.421052631579,4294,4059,133.705263157895,69,0,1567,1827,448,4,4,4,4,4,4,3,4,4,4,4,4,4,4,4,4
"279",4374,-101.168421052632,4262,-299.115789473684,172.684210526316,3878,-259.221052631579,4079,4406,212.168421052632,140.884210526316,4275,4063,116.273684210526,70,0,1563,1835,470,4,4,4,4,4,4,3,4,4,4,4,4,4,4,4,4
"280",4362,-122.189473684211,4262,-317.063157894737,155.242105263158,3847,-265.378947368421,4052,4392,193.705263157895,137.294736842105,4252,4061,88.5789473684211,71,0,1563,1839,447,4,4,4,4,4,4,3,4,4,4,4,4,4,4,4,4
"281",4362,-127.315789473684,4256,-321.684210526316,150.631578947368,3836,-273.073684210526,4046,4399,191.652631578947,137.294736842105,4249,4056,93.1894736842105,72,0,1559,1843,457,4,4,4,4,4,4,3,4,4,4,4,4,4,4,4,4
"282",4361,-121.168421052632,4252,-318.6,158.315789473684,3837,-275.126315789474,4049,4417,197.294736842105,133.705263157895,4254,4043,106.526315789474,73,0,1559,1843,470,4,4,4,4,4,4,3,4,4,4,4,4,4,4,4,4
"283",4355,-130.915789473684,4253,-325.778947368421,155.242105263158,3825,-273.578947368421,4039,4411,188.578947368421,128.578947368421,4247,4038,92.1684210526316,74,0,1551,1851,511,4,4,4,4,4,4,3,4,4,4,4,4,4,4,4,4
"284",4347,-147.315789473684,4256,-338.094736842105,143.452631578947,3807,-276.663157894737,4025,4388,167.547368421053,130.115789473684,4230,4048,70.6315789473684,75,0,1555,1851,413,4,4,4,4,4,4,3,4,4,4,4,4,4,4,4,4
"285",4344,-156.547368421053,4254,-340.652631578947,138.315789473684,3804,-277.168421052632,4019,4382,158.831578947368,130.115789473684,4218,4049,60.3684210526316,76,0,1551,1855,454,4,4,4,4,4,4,3,4,4,4,4,4,4,4,4,4
"286",4344,-161.684210526316,4253,-336.547368421053,135.757894736842,3802,-276.663157894737,4020,4394,152.684210526316,127.547368421053,4214,4037,50.1157894736842,77,0,1555,1855,382,4,4,4,4,4,4,3,4,4,4,4,4,4,4,4,4
"287",4336,-166.810526315789,4254,-341.684210526316,129.6,3797,-283.842105263158,4014,4391,133.189473684211,124.473684210526,4203,4026,41.9052631578947,78,0,1551,1855,511,4,4,4,4,4,4,3,4,4,4,4,4,4,4,4,4
"288",4329,-165.273684210526,4250,-343.726315789474,125.494736842105,3809,-291.021052631579,4014,4373,121.4,114.726315789474,4199,4014,49.0842105263158,79,0,1555,1863,413,4,4,4,4,4,4,3,4,4,4,4,4,4,4,4,4
"289",4329,-160.652631578947,4247,-339.631578947368,122.936842105263,3817,-288.968421052632,4022,4372,121.905263157895,115.757894736842,4206,4015,53.7052631578947,80,0,1555,1859,454,4,4,4,4,4,4,3,4,4,4,4,4,4,4,4,4
"290",4318,-179.631578947368,4250,332.273684210526,116.778947368421,3792,-286.915789473684,4005,4384,101.4,126.526315789474,4189,4031,29.0842105263158,81,0,1555,1859,382,4,4,4,4,4,4,3,4,4,4,4,4,4,4,4,4
"291",4299,-208.347368421053,4250,307.663157894737,109.6,3761,-289.989473684211,3974,4378,73.1894736842105,118.315789473684,4153,4027,-2.70526315789474,82,0,1559,1855,511,4,4,4,4,4,4,3,4,4,4,4,4,4,4,4,4
"292",4293,-216.547368421053,4245,304.073684210526,104.989473684211,3752,-291.021052631579,3969,4362,70.6315789473684,103.957894736842,4141,4004,-9.88421052631579,83,0,1555,1859,413,4,4,4,4,4,4,3,4,4,4,4,4,4,4,4,4
"293",4293,-212.452631578947,4246,309.715789473684,98.3157894736842,3749,-294.094736842105,3972,4358,68.5789473684211,108.063157894737,4146,3990,-9.36842105263158,84,0,1563,1851,454,4,4,4,4,4,4,3,4,4,4,4,4,4,4,4,4
"294",4287,-222.705263157895,4242,302.021052631579,83.4526315789474,3741,-303.326315789474,3959,4357,55.7578947368421,101.905263157895,4141,3985,-18.0947368421053,85,0,1559,1855,382,4,4,4,4,4,4,3,4,4,4,4,4,4,4,4,4
"295",4272,-239.115789473684,4232,290.736842105263,66.0105263157895,3728,-311.536842105263,3944,4347,43.9578947368421,83.4526315789474,4127,3968,-28.8631578947368,86,0,1563,1855,511,4,4,4,4,4,4,3,4,4,4,4,4,4,4,4,4
"296",4255,-253.473684210526,4224,273.810526315789,55.2421052631579,3707,-321.273684210526,3926,4332,27.5473684210526,76.2736842105263,4106,3948,-48.3473684210526,87,0,1563,1851,413,4,4,4,4,4,4,3,4,4,4,4,4,4,4,4,4
"297",4246,-269.368421052632,4217,256.894736842105,41.4,3680,-333.073684210526,3903,4323,17.2947368421053,70.6315789473684,4085,3934,-73.9894736842105,88,0,1567,1851,454,4,4,4,4,4,4,3,4,4,4,4,4,4,4,4,4
"298",4242,-288.863157894737,4213,244.073684210526,19.3473684210526,3654,-340.768421052632,3884,4321,14.7263157894737,61.9052631578947,4066,3928,-93.9894736842105,89,0,1567,1847,382,4,4,4,4,4,4,3,4,4,4,4,4,4,4,4,4
"299",4240,-302.705263157895,4216,233.810526315789,18.8315789473684,3645,-336.663157894737,3875,4317,1.90526315789474,61.9052631578947,4050,3925,-111.936842105263,90,0,1571,1843,511,4,4,4,4,4,4,3,4,4,4,4,4,4,4,4,4
"300",4242,-306.294736842105,4217,227.147368421053,33.1894736842105,3650,-330.505263157895,3872,4315,-17.0631578947368,64.9894736842105,4041,3926,-119.631578947368,91,0,1567,1843,413,4,4,4,4,4,4,3,4,4,4,4,4,4,4,4,4
"301",4237,-317.063157894737,4215,218.936842105263,18.8315789473684,3638,-333.073684210526,3863,4315,-34.5052631578947,62.9368421052632,4031,3927,-126.294736842105,92,0,1567,1843,454,4,4,4,4,4,4,3,4,4,4,4,4,4,4,4,4
"302",4228,-327.831578947368,4213,211.757894736842,-0.136842105263158,3622,-339.221052631579,3856,4310,-48.8631578947368,59.3473684210526,4021,3917,-136.042105263158,93,0,1571,1835,382,4,4,4,4,4,4,3,4,4,4,4,4,4,4,4,4
"303",4231,-318.6,4212,215.347368421053,11.6526315789474,3636,-338.2,3869,4304,-36.0421052631579,61.9052631578947,4032,3914,-122.705263157895,94,0,1567,1835,511,4,4,4,4,4,4,3,4,4,4,4,4,4,4,4,4
"304",4236,-300.652631578947,4214,227.663157894737,17.2947368421053,3654,-333.578947368421,3884,4311,-2.70526315789474,60.8842105263158,4054,3915,-97.5789473684211,95,0,1567,1831,413,4,4,4,4,4,4,3,4,4,4,4,4,4,4,4,4
"305",4223,-300.136842105263,4207,229.715789473684,-0.652631578947368,3654,-341.789473684211,3886,4309,4.98947368421053,50.6315789473684,4065,3902,-84.2421052631579,96,0,1567,1827,454,4,4,4,4,4,4,3,4,4,4,4,4,4,4,4,4
"306",4211,-305.273684210526,4203,224.073684210526,-5.27368421052632,3646,337.810526315789,3881,4290,-11.4210526315789,43.9578947368421,4059,3895,-86.8105263157895,97,0,1567,1827,382,4,4,4,4,4,4,3,4,4,4,4,4,4,4,4,4
"307",4210,-311.936842105263,4202,214.842105263158,-4.2421052631579,3631,336.273684210526,3870,4289,-20.1368421052632,46.0105263157895,4045,3907,-103.221052631579,98,0,1567,1823,511,4,4,4,4,4,4,3,4,4,4,4,4,4,4,4,4
"308",4211,-312.957894736842,4203,213.810526315789,-17.0631578947368,3632,338.315789473684,3869,4296,-21.1684210526316,47.0421052631579,4042,3911,-107.831578947368,99,0,1567,1823,413,4,4,4,4,4,4,3,4,4,4,4,4,4,4,4,4
"309",4204,-307.831578947368,4197,214.326315789474,-28.8631578947368,3649,333.705263157895,3878,4282,-27.3157894736842,40.3684210526316,4051,3897,-99.6315789473684,100,0,1567,1819,454,4,4,4,4,4,4,3,4,4,4,4,4,4,4,4,4
"310",4199,-315.526315789474,4192,206.126315789474,-28.8631578947368,3645,329.084210526316,3874,4274,-41.1684210526316,34.2210526315789,4043,3883,-109.884210526316,101,0,1567,1811,382,4,4,4,4,4,4,3,4,4,4,4,4,4,4,4,4
"311",4219,-310.4,4202,216.378947368421,-6.81052631578947,3651,-342.305263157895,3882,4298,-30.4,42.4210526315789,4046,3897,-107.315789473684,102,0,1567,1811,511,4,4,4,4,4,4,3,4,4,4,4,4,4,4,4,4
"312",4255,-269.884210526316,4218,256.378947368421,43.4526315789474,3705,-313.073684210526,3931,4329,17.8105263157895,66.5263157894737,4097,3945,-59.6315789473684,103,0,1567,1803,413,4,4,4,4,4,4,3,4,4,4,4,4,4,4,4,4
"313",4281,-231.421052631579,4231,295.347368421053,84.9894736842105,3750,-296.147368421053,3977,4338,60.8842105263158,89.0842105263158,4145,3987,-14.5052631578947,104,0,1563,1807,454,4,4,4,4,4,4,3,4,4,4,4,4,4,4,4,4
"314",4286,-223.221052631579,4233,306.631578947368,95.2421052631579,3754,-290.505263157895,3992,4334,69.0842105263158,94.7263157894737,4157,3995,-1.68421052631579,105,0,1571,1799,382,4,4,4,4,4,4,3,4,4,4,4,4,4,4,4,4
"315",4282,-223.221052631579,4234,303.042105263158,94.7263157894737,3751,-290.505263157895,3993,4338,64.9894736842105,95.2421052631579,4157,3996,-3.72631578947368,106,0,1563,1799,511,4,4,4,4,4,4,3,4,4,4,4,4,4,4,4,4
"316",4277,-228.863157894737,4230,293.305263157895,93.7052631578947,3744,-297.684210526316,3983,4347,61.4,95.2421052631579,4151,3997,-15.5263157894737,107,0,1567,1799,413,4,4,4,4,4,4,3,4,4,4,4,4,4,4,4,4
"317",4281,-230.4,4229,295.863157894737,84.9894736842105,3741,-302.305263157895,3978,4343,62.9368421052632,94.2210526315789,4151,3992,-18.0947368421053,108,0,1571,1791,454,4,4,4,4,4,4,3,4,4,4,4,4,4,4,4,4
"318",4285,-220.136842105263,4230,308.684210526316,81.9052631578947,3754,-300.768421052632,3995,4329,76.7789473684211,92.1684210526316,4165,3990,-2.70526315789474,109,0,1571,1791,382,4,4,4,4,4,4,3,4,4,4,4,4,4,4,4,4
"319",4274,-222.705263157895,4230,306.631578947368,84.9894736842105,3753,-302.305263157895,3998,4331,77.8105263157895,89.6,4161,3990,-8.86315789473684,110,0,1567,1791,511,4,4,4,4,4,4,3,4,4,4,4,4,4,4,4,4
"320",4266,-246.294736842105,4227,289.715789473684,81.9052631578947,3724,-305.894736842105,3970,4332,51.6526315789474,85.4947368421053,4134,3989,-38.0947368421053,111,0,1567,1791,413,4,4,4,4,4,4,3,4,4,4,4,4,4,4,4,4
"321",4265,-266.810526315789,4222,270.736842105263,61.4,3696,-313.578947368421,3946,4316,24.4736842105263,73.1894736842105,4111,3971,-59.1157894736842,112,0,1571,1787,454,4,4,4,4,4,4,3,4,4,4,4,4,4,4,4,4
"322",4249,-287.831578947368,4213,248.684210526316,22.9368421052632,3670,-333.073684210526,3930,4291,0.884210526315789,53.1894736842105,4088,3931,-81.1684210526316,113,0,1567,1791,382,4,4,4,4,4,4,3,4,4,4,4,4,4,4,4,4
"323",4211,-326.294736842105,4197,214.326315789474,-20.6526315789474,3627,330.115789473684,3892,4265,-38.6,33.7052631578947,4043,3892,-125.273684210526,114,0,1571,1787,511,4,4,4,4,4,4,3,4,4,4,4,4,4,4,4,4
"324",4184,331.252631578947,4183,182.021052631579,-52.4526315789474,3585,309.6,3851,4248,-77.5789473684211,15.7578947368421,4001,3856,-164.242105263158,115,0,1567,1787,413,4,4,4,4,4,4,3,4,4,4,4,4,4,4,4,4
"325",4175,322.021052631579,4172,168.168421052632,-69.8842105263158,3570,296.778947368421,3837,4249,-90.9157894736842,1.4,3991,3835,-174.505263157895,116,0,1571,1791,454,4,4,4,4,4,4,3,4,4,4,4,4,4,4,4,4
"326",4169,317.4,4173,168.168421052632,-86.8105263157895,3568,289.6,3834,4248,-97.0631578947368,-3.72631578947368,3988,3837,-181.684210526316,117,0,1567,1787,382,4,4,4,4,4,4,3,4,4,4,4,4,4,4,4,4
"327",4167,307.663157894737,4172,158.431578947368,-96.0421052631579,3557,287.547368421053,3823,4235,-102.189473684211,-3.72631578947368,3976,3835,-196.042105263158,118,0,1571,1787,511,4,4,4,4,4,4,3,4,4,4,4,4,4,4,4,4
"328",4166,296.894736842105,4170,140.989473684211,-93.4736842105263,3536,288.063157894737,3806,4239,-114.505263157895,-3.22105263157895,3960,3829,-218.094736842105,119,0,1571,1787,413,4,4,4,4,4,4,3,4,4,4,4,4,4,4,4,4
"329",4157,282.021052631579,4167,131.757894736842,-101.168421052632,3516,287.547368421053,3792,4248,-133.989473684211,-4.7578947368421,3943,3831,-236.547368421053,120,0,1571,1787,454,4,4,4,4,4,4,3,4,4,4,4,4,4,4,4,4
"330",4158,283.557894736842,4169,136.894736842105,-112.957894736842,3517,286.526315789474,3796,4239,-130.915789473684,-7.31578947368421,3947,3830,-225.273684210526,121,0,1571,1783,382,4,4,4,4,4,4,3,4,4,4,4,4,4,4,4,4
"331",4166,293.810526315789,4169,141.505263157895,-109.368421052632,3527,287.547368421053,3805,4231,-115.526315789474,-9.36842105263158,3961,3826,-212.452631578947,122,0,1571,1787,511,4,4,4,4,4,4,3,4,4,4,4,4,4,4,4,4
"332",4159,284.073684210526,4163,130.736842105263,-102.189473684211,3516,286.526315789474,3792,4226,-126.810526315789,-11.9368421052632,3950,3830,-233.989473684211,123,0,1575,1783,413,4,4,4,4,4,4,3,4,4,4,4,4,4,4,4,4
"333",4156,270.736842105263,4164,120.484210526316,-102.189473684211,3502,287.042105263158,3778,4222,-142.189473684211,-11.9368421052632,3933,3832,-253.473684210526,124,0,1571,1783,454,4,4,4,4,4,4,3,4,4,4,4,4,4,4,4,4
"334",4168,272.273684210526,4166,122.021052631579,-113.473684210526,3508,288.578947368421,3786,4236,-131.936842105263,-5.77894736842105,3939,3834,-245.778947368421,125,0,1575,1783,382,4,4,4,4,4,4,3,4,4,4,4,4,4,4,4,4
"335",4178,278.431578947368,4169,133.810526315789,-119.115789473684,3512,287.547368421053,3796,4249,-124.757894736842,-2.70526315789474,3948,3835,-242.189473684211,126,0,1571,1779,511,4,4,4,4,4,4,3,4,4,4,4,4,4,4,4,4
"336",4183,277.4,4168,136.894736842105,-104.242105263158,3511,288.578947368421,3801,4237,-123.726315789474,-4.2421052631579,3946,3830,-244.242105263158,127,0,1571,1783,413,4,4,4,4,4,4,3,4,4,4,4,4,4,4,4,4
"337",4187,277.4,4172,134.326315789474,-95.0105263157895,3509,292.684210526316,3803,4233,-115.526315789474,-3.72631578947368,3944,3833,-244.242105263158,128,0,1571,1779,454,4,4,4,4,4,4,4,4,4,4,4,4,4,4,4,4
"338",4184,274.326315789474,4172,132.273684210526,-102.705263157895,3507,292.684210526316,3798,4237,-110.915789473684,-8.86315789473684,3947,3833,-243.726315789474,0,0,1575,1779,337,4,4,4,4,4,4,3,4,4,4,4,4,4,4,4,4
"339",4190,286.126315789474,4166,144.073684210526,-99.1157894736842,3523,290.631578947368,3808,4224,-101.168421052632,-19.1157894736842,3967,3815,-225.778947368421,1,0,1571,1779,438,4,4,4,4,4,4,3,4,4,4,4,4,4,4,4,4
"340",4200,305.610526315789,4163,156.894736842105,-89.3684210526316,3549,291.136842105263,3833,4213,-89.8842105263158,-19.6315789473684,3987,3809,-203.726315789474,2,0,1567,1779,461,4,4,4,4,4,4,3,4,4,4,4,4,4,4,4,4
"341",4193,299.968421052632,4165,152.273684210526,-97.0631578947368,3549,291.136842105263,3834,4216,-102.705263157895,-16.5473684210526,3980,3825,-212.452631578947,3,0,1575,1775,499,4,4,4,4,4,4,3,4,4,4,4,4,4,4,4,4
"342",4184,279.452631578947,4166,139.968421052632,-98.6,3522,289.6,3812,4219,-128.347368421053,-16.5473684210526,3960,3832,-234.505263157895,4,0,1571,1779,513,4,4,4,4,4,4,3,4,4,4,4,4,4,4,4,4
"343",4184,271.252631578947,4166,131.252631578947,-87.8315789473684,3509,289.6,3799,4223,-133.473684210526,-16.5473684210526,3955,3828,-240.652631578947,5,0,1575,1775,448,4,4,4,4,4,4,3,4,4,4,4,4,4,4,4,4
"344",4188,281.505263157895,4168,135.863157894737,-90.9157894736842,3521,291.652631578947,3802,4226,-122.705263157895,-16.5473684210526,3962,3828,-236.547368421053,6,0,1571,1779,470,4,4,4,4,4,4,3,4,4,4,4,4,4,4,4,4
"345",4185,283.042105263158,4163,139.968421052632,-102.189473684211,3527,291.136842105263,3807,4217,-118.6,-16.5473684210526,3967,3833,-233.473684210526,7,0,1575,1779,447,4,4,4,4,4,4,3,4,4,4,4,4,4,4,4,4
"346",4185,279.452631578947,4163,139.452631578947,-107.315789473684,3521,291.136842105263,3811,4210,-121.684210526316,-17.0631578947368,3970,3830,-228.863157894737,8,0,1575,1775,457,4,4,4,4,4,4,3,4,4,4,4,4,4,4,4,4
"347",4187,285.610526315789,4159,139.452631578947,-103.221052631579,3523,291.652631578947,3815,4224,-112.957894736842,-19.1157894736842,3980,3822,-217.578947368421,9,0,1571,1775,470,4,4,4,4,4,4,3,4,4,4,4,4,4,4,4,4
"348",4188,293.305263157895,4161,144.578947368421,-91.9368421052632,3530,291.136842105263,3819,4229,-100.136842105263,-17.0631578947368,3989,3828,-213.473684210526,10,0,1571,1771,511,4,4,4,4,4,4,3,4,4,4,4,4,4,4,4,4
"349",4185,284.073684210526,4164,139.968421052632,-84.2421052631579,3522,292.168421052632,3813,4205,-109.368421052632,-13.4736842105263,3981,3847,-224.242105263158,11,0,1567,1775,413,4,4,4,4,4,4,3,4,4,4,4,4,4,4,4,4
"350",4183,272.273684210526,4164,132.273684210526,-99.1157894736842,3508,291.136842105263,3799,4199,-121.684210526316,-15.0105263157895,3968,3851,-234.505263157895,12,0,1571,1775,454,4,4,4,4,4,4,3,4,4,4,4,4,4,4,4,4
"351",4190,278.936842105263,4162,140.989473684211,-117.063157894737,3510,289.6,3804,4217,-115.010526315789,-17.0631578947368,3972,3838,-226.810526315789,13,0,1575,1771,382,4,4,4,4,4,4,3,4,4,4,4,4,4,4,4,4
"352",4192,291.252631578947,4160,151.252631578947,-109.884210526316,3524,288.578947368421,3826,4208,-101.684210526316,-18.0947368421053,3989,3834,-209.368421052632,14,0,1567,1775,511,4,4,4,4,4,4,3,4,4,4,4,4,4,4,4,4
"353",4190,300.989473684211,4163,160.484210526316,-97.0631578947368,3537,287.547368421053,3834,4189,-91.4210526315789,-18.6,4004,3837,-198.6,15,0,1575,1771,413,4,4,4,4,4,4,3,4,4,4,4,4,4,4,4,4
"354",4197,307.147368421053,4163,170.736842105263,-90.4,3544,292.684210526316,3837,4209,-80.1368421052632,-17.0631578947368,4018,3845,-190.915789473684,16,0,1571,1763,0,4,4,4,4,4,4,3,4,4,4,4,4,4,4,4,4
"355",4204,313.810526315789,4168,173.810526315789,-92.4526315789474,3542,301.905263157895,3845,4222,-76.0421052631579,-15.5263157894737,4024,3849,-184.242105263158,17,0,1571,1771,0,4,4,4,4,4,4,3,4,4,4,4,4,4,4,4,4
"356",4202,319.452631578947,4162,171.252631578947,-102.705263157895,3541,298.831578947368,3847,4205,-69.3684210526316,-18.6,4029,3837,-172.957894736842,18,0,1571,1767,0,4,4,4,4,4,4,3,4,4,4,4,4,4,4,4,4
"357",4204,330.221052631579,4159,184.073684210526,-100.136842105263,3556,292.684210526316,3851,4196,-58.6,-21.1684210526316,4043,3831,-161.684210526316,19,0,1575,1767,0,4,4,4,4,4,4,3,4,4,4,4,4,4,4,4,4
"358",4203,326.126315789474,4165,188.684210526316,-80.1368421052632,3558,297.294736842105,3850,4195,-72.4526315789474,-18.6,4041,3844,-168.863157894737,20,0,1571,1763,0,4,4,4,4,4,4,3,4,4,4,4,4,4,4,4,4
"359",4202,315.347368421053,4169,174.326315789474,-68.8631578947368,3546,301.4,3840,4194,-89.8842105263158,-15.0105263157895,4026,3855,-181.168421052632,21,0,1571,1767,0,4,4,4,4,4,4,3,4,4,4,4,4,4,4,4,4
"360",4210,317.915789473684,4166,173.305263157895,-83.2210526315789,3545,296.273684210526,3835,4201,-82.7052631578947,-18.6,4027,3843,-180.652631578947,22,0,1575,1763,0,4,4,4,4,4,4,3,4,4,4,4,4,4,4,4,4
"361",4211,310.221052631579,4160,175.347368421053,-95.5263157894737,3533,291.136842105263,3834,4194,-79.1157894736842,-23.2210526315789,4024,3836,-190.915789473684,23,0,1571,1763,0,4,4,4,4,4,4,3,4,4,4,4,4,4,4,4,4
"362",4202,288.684210526316,4166,160.484210526316,-93.4736842105263,3507,291.652631578947,3815,4183,-96.0421052631579,-19.6315789473684,4001,3849,-216.547368421053,24,0,1575,1763,0,4,4,4,4,4,4,3,4,4,4,4,4,4,4,4,4
"363",4200,282.536842105263,4167,148.684210526316,-90.9157894736842,3506,295.242105263158,3805,4197,-99.1157894736842,-15.5263157894737,3993,3855,-221.168421052632,25,0,1571,1763,0,4,4,4,4,4,4,3,4,4,4,4,4,4,4,4,4
"364",4204,292.789473684211,4167,154.842105263158,-95.0105263157895,3516,300.884210526316,3811,4210,-91.9368421052632,-17.5789473684211,4005,3850,-209.884210526316,26,0,1575,1759,0,4,4,4,4,4,4,3,4,4,4,4,4,4,4,4,4
"365",4198,289.2,4162,155.347368421053,-97.0631578947368,3509,297.810526315789,3809,4191,-94.5052631578947,-19.6315789473684,4004,3849,-211.421052631579,27,0,1571,1755,0,4,4,4,4,4,4,3,4,4,4,4,4,4,4,4,4
"366",4194,290.736842105263,4157,151.757894736842,-92.4526315789474,3504,290.631578947368,3806,4177,-90.9157894736842,-25.7789473684211,4005,3841,-214.505263157895,28,0,1571,1759,0,4,4,4,4,4,4,3,4,4,4,4,4,4,4,4,4
"367",4199,299.452631578947,4153,152.789473684211,-90.9157894736842,3514,292.168421052632,3815,4193,-83.7263157894737,-32.4526315789474,4013,3832,-210.4,29,0,1575,1751,0,4,4,4,4,4,4,3,4,4,4,4,4,4,4,4,4
"368",4195,299.452631578947,4157,155.863157894737,-99.1157894736842,3528,294.221052631579,3820,4201,-86.8105263157895,-28.8631578947368,4014,3847,-209.368421052632,30,0,1575,1755,0,4,4,4,4,4,4,3,4,4,4,4,4,4,4,4,4
"369",4186,298.431578947368,4159,156.378947368421,-108.863157894737,3527,290.115789473684,3815,4191,-90.4,-27.3157894736842,4011,3854,-208.347368421053,31,0,1575,1747,0,4,4,4,4,4,4,3,4,4,4,4,4,4,4,4,4
"370",4183,302.536842105263,4154,155.347368421053,-105.778947368421,3512,287.042105263158,3818,4183,-84.2421052631579,-31.9368421052632,4015,3843,-198.094736842105,32,0,1571,1747,0,4,4,4,4,4,4,3,4,4,4,4,4,4,4,4,4
"371",4186,303.557894736842,4158,157.915789473684,-106.810526315789,3515,288.578947368421,3824,4182,-82.1894736842105,-33.4736842105263,4022,3843,-193.473684210526,33,0,1579,1747,0,4,4,4,4,4,4,3,4,4,4,4,4,4,4,4,4
"372",4185,300.484210526316,4159,161.505263157895,-120.652631578947,3531,290.115789473684,3822,4181,-87.8315789473684,-32.9578947368421,4022,3848,-203.726315789474,34,0,1575,1743,0,4,4,4,4,4,4,3,4,4,4,4,4,4,4,4,4
"373",4184,302.021052631579,4154,159.452631578947,-116.547368421053,3529,289.6,3824,4178,-91.4210526315789,-32.9578947368421,4020,3847,-208.863157894737,35,0,1579,1739,0,4,4,4,4,4,4,3,4,4,4,4,4,4,4,4,4
"374",4189,303.557894736842,4152,155.863157894737,-95.0105263157895,3523,292.168421052632,3830,4191,-84.7578947368421,-30.4,4021,3848,-198.094736842105,36,0,1575,1739,0,4,4,4,4,4,4,3,4,4,4,4,4,4,4,4,4
"375",4201,307.663157894737,4159,165.094736842105,-85.7789473684211,3527,299.347368421053,3832,4201,-77.0631578947368,-31.4210526315789,4028,3844,-192.957894736842,37,0,1579,1735,0,4,4,4,4,4,4,3,4,4,4,4,4,4,4,4,4
"376",4204,302.536842105263,4157,166.126315789474,-105.273684210526,3526,303.957894736842,3826,4189,-83.2210526315789,-33.9894736842105,4027,3844,-205.273684210526,38,0,1575,1731,0,4,4,4,4,4,4,3,4,4,4,4,4,4,4,4,4
"377",4196,286.631578947368,4159,149.715789473684,-118.094736842105,3511,301.905263157895,3807,4181,-87.3157894736842,-30.4,4008,3854,-225.778947368421,39,0,1579,1723,0,4,4,4,4,4,4,3,4,4,4,4,4,4,4,4,4
"378",4195,275.347368421053,4161,136.378947368421,-89.8842105263158,3492,300.368421052632,3796,4190,-82.7052631578947,-31.4210526315789,3990,3848,-239.631578947368,40,0,1579,1715,0,4,4,4,4,4,4,3,4,4,4,4,4,4,4,4,4
"379",4203,276.894736842105,4159,140.484210526316,-67.8315789473684,3493,303.452631578947,3806,4186,-94.5052631578947,-37.0631578947368,3988,3843,-243.221052631579,41,0,1575,1711,0,4,4,4,4,4,4,3,4,4,4,4,4,4,4,4,4
"380",4204,280.484210526316,4158,147.147368421053,-87.8315789473684,3515,303.957894736842,3812,4170,-117.063157894737,-40.1368421052632,3989,3846,-245.778947368421,42,0,1583,1703,0,4,4,4,4,4,4,3,4,4,4,4,4,4,4,4,4
"381",4202,286.126315789474,4157,150.221052631579,-87.3157894736842,3535,302.936842105263,3814,4177,-109.884210526316,-42.7052631578947,3994,3835,-239.631578947368,43,0,1579,1703,0,4,4,4,4,4,4,3,4,4,4,4,4,4,4,4,4
"382",4208,296.378947368421,4163,156.378947368421,-33.9894736842105,3549,302.421052631579,3830,4192,-89.8842105263158,-38.6,4009,3832,-222.705263157895,44,0,1579,1699,0,4,4,4,4,4,4,3,4,4,4,4,4,4,4,4,4
"383",4216,293.305263157895,4172,156.378947368421,-13.4736842105263,3562,307.042105263158,3836,4192,-96.0421052631579,-30.4,4008,3850,-228.863157894737,45,0,1579,1699,0,4,4,4,4,4,4,3,4,4,4,4,4,4,4,4,4
"384",4216,287.147368421053,4173,154.842105263158,-63.2210526315789,3559,318.315789473684,3831,4186,-111.421052631579,-34.5052631578947,3995,3852,-247.315789473684,46,0,1579,1703,0,4,4,4,4,4,4,3,4,4,4,4,4,4,4,4,4
"385",4206,286.126315789474,4157,149.2,-97.0631578947368,3541,317.294736842105,3832,4176,-106.294736842105,-47.3157894736842,3996,3838,-237.578947368421,47,0,1579,1699,0,4,4,4,4,4,4,3,4,4,4,4,4,4,4,4,4
"386",4191,290.736842105263,4154,145.610526315789,-71.9368421052632,3538,308.578947368421,3830,4169,-100.136842105263,-49.8842105263158,4002,3832,-226.294736842105,48,0,1579,1711,0,4,4,4,4,4,4,3,4,4,4,4,4,4,4,4,4
"387",4183,288.684210526316,4159,139.968421052632,-53.9894736842105,3548,313.18947368421,3819,4174,-108.863157894737,-44.7578947368421,4000,3834,-238.094736842105,49,0,1579,1715,0,4,4,4,4,4,4,3,4,4,4,4,4,4,4,4,4
"388",4186,277.4,4159,130.736842105263,-78.0947368421053,3531,319.863157894737,3808,4173,-124.242105263158,-44.2421052631579,3990,3836,-251.936842105263,50,0,1575,1723,0,4,4,4,4,4,4,3,4,4,4,4,4,4,4,4,4
"389",4185,262.021052631579,4154,119.452631578947,-100.136842105263,3497,309.6,3794,4166,-142.189473684211,-51.4210526315789,3973,3834,-264.242105263158,51,0,1575,1731,0,4,4,4,4,4,4,3,4,4,4,4,4,4,4,4,4
"390",4173,251.252631578947,4152,110.736842105263,-99.1157894736842,3481,301.905263157895,3784,4171,-152.452631578947,-54.5052631578947,3958,3830,-278.094736842105,52,0,1575,1727,0,4,4,4,4,4,4,3,4,4,4,4,4,4,4,4,4
"391",4170,253.305263157895,4154,110.221052631579,-87.8315789473684,3483,306.526315789474,3789,4174,-143.726315789474,-49.8842105263158,3959,3831,-276.042105263158,53,0,1567,1739,0,4,4,4,4,4,4,3,4,4,4,4,4,4,4,4,4
"392",4173,254.326315789474,4153,109.715789473684,-86.2947368421053,3475,306.526315789474,3793,4163,-139.115789473684,-52.9578947368421,3963,3831,-272.452631578947,54,0,1579,1739,0,4,4,4,4,4,4,3,4,4,4,4,4,4,4,4,4
"393",4172,248.684210526316,4154,109.2,-101.168421052632,3464,306.526315789474,3788,4172,-147.831578947368,-60.6526315789474,3956,3828,-284.757894736842,55,0,1575,1743,0,4,4,4,4,4,4,3,4,4,4,4,4,4,4,4,4
"394",4171,239.968421052632,4153,103.042105263158,-104.757894736842,3457,309.6,3784,4187,-151.936842105263,-53.9894736842105,3946,3834,-295.010526315789,56,0,1571,1751,0,4,4,4,4,4,4,3,4,4,4,4,4,4,4,4,4
"395",4171,228.168421052632,4154,92.7894736842105,-94.5052631578947,3444,307.547368421053,3772,4174,-158.6,-49.3684210526316,3932,3840,-307.315789473684,57,0,1571,1751,0,4,4,4,4,4,4,3,4,4,4,4,4,4,4,4,4
"396",4165,217.915789473684,4149,83.5578947368421,-95.0105263157895,3436,301.905263157895,3759,4162,-170.915789473684,-60.6526315789474,3923,3832,-318.6,58,0,1575,1755,0,4,4,4,4,4,4,3,4,4,4,4,4,4,4,4,4
"397",4168,224.073684210526,4146,88.1684210526316,-102.189473684211,3451,302.936842105263,3766,4167,-170.915789473684,-66.8105263157895,3930,3829,-311.421052631579,59,0,1567,1755,0,4,4,4,4,4,4,3,4,4,4,4,4,4,4,4,4
"398",4185,239.968421052632,4151,103.042105263158,-92.9578947368421,3467,310.115789473684,3783,4168,-154.505263157895,-62.7052631578947,3949,3830,-295.526315789474,60,0,1567,1767,0,4,4,4,4,4,4,3,4,4,4,4,4,4,4,4,4
"399",4191,249.2,4155,110.221052631579,-73.4736842105263,3467,310.631578947368,3790,4165,-131.421052631579,-60.6526315789474,3959,3825,-281.684210526316,61,0,1575,1763,0,4,4,4,4,4,4,3,4,4,4,4,4,4,4,4,4
"400",4182,245.610526315789,4150,107.147368421053,-78.6,3462,305.494736842105,3782,4169,-125.778947368421,-61.1684210526316,3961,3826,-278.6,62,0,1567,1771,0,4,4,4,4,4,4,3,4,4,4,4,4,4,4,4,4
"401",4181,239.968421052632,4145,105.094736842105,-101.168421052632,3461,310.115789473684,3775,4168,-140.136842105263,-65.2736842105263,3957,3827,-289.368421052632,63,0,1571,1775,0,4,4,4,4,4,4,3,4,4,4,4,4,4,4,4,4
"402",4191,245.094736842105,4150,107.147368421053,-97.5789473684211,3466,322.421052631579,3780,4166,-147.831578947368,-68.3473684210526,3957,3821,-290.915789473684,64,0,1567,1775,338,4,4,4,4,4,4,3,4,4,4,4,4,4,4,4,4
"403",4195,256.378947368421,4155,111.252631578947,-75.5263157894737,3491,324.473684210526,3791,4171,-137.578947368421,-63.7263157894737,3968,3827,-274.505263157895,65,0,1571,1779,438,4,4,4,4,4,4,3,4,4,4,4,4,4,4,4,4
"404",4191,260.989473684211,4156,119.452631578947,-75.5263157894737,3502,320.884210526316,3794,4166,-136.042105263158,-59.6315789473684,3976,3839,-272.957894736842,66,0,1567,1783,461,4,4,4,4,4,4,3,4,4,4,4,4,4,4,4,4
"405",4195,254.326315789474,4154,119.452631578947,-85.7789473684211,3476,322.936842105263,3791,4157,-141.168421052632,-65.2736842105263,3973,3836,-276.042105263158,67,0,1571,1783,499,4,4,4,4,4,4,3,4,4,4,4,4,4,4,4,4
"406",4202,257.4,4153,118.936842105263,-88.8631578947368,3473,323.452631578947,3794,4170,-136.042105263158,-69.3684210526316,3974,3822,-262.18947368421,68,0,1571,1779,513,4,4,4,4,4,4,3,4,4,4,4,4,4,4,4,4
"407",4195,260.989473684211,4153,118.431578947368,-84.7578947368421,3492,318.831578947368,3793,4179,-132.957894736842,-66.2947368421053,3977,3823,-264.757894736842,69,0,1571,1787,448,4,4,4,4,4,4,3,4,4,4,4,4,4,4,4,4
"408",4190,255.863157894737,4154,115.863157894737,-74.5052631578947,3487,318.315789473684,3785,4163,-136.042105263158,-62.7052631578947,3973,3841,-280.652631578947,70,0,1575,1779,470,4,4,4,4,4,4,3,4,4,4,4,4,4,4,4,4
"409",4199,249.2,4155,112.273684210526,-69.8842105263158,3474,321.905263157895,3782,4151,-138.094736842105,-64.2421052631579,3969,3851,-279.115789473684,71,0,1571,1783,447,4,4,4,4,4,4,3,4,4,4,4,4,4,4,4,4
"410",4202,248.168421052632,4153,110.221052631579,-84.2421052631579,3475,319.863157894737,3785,4165,-144.757894736842,-69.8842105263158,3966,3836,-277.578947368421,72,0,1575,1783,457,4,4,4,4,4,4,3,4,4,4,4,4,4,4,4,4
"411",4197,252.789473684211,4150,113.810526315789,-94.5052631578947,3479,317.294736842105,3783,4172,-146.294736842105,-73.4736842105263,3968,3827,-280.652631578947,73,0,1571,1783,470,4,4,4,4,4,4,3,4,4,4,4,4,4,4,4,4
"412",4200,258.936842105263,4147,122.536842105263,-82.7052631578947,3486,320.368421052632,3786,4164,-124.757894736842,-72.9578947368421,3981,3832,-268.863157894737,74,0,1575,1779,511,4,4,4,4,4,4,3,4,4,4,4,4,4,4,4,4
"413",4203,267.663157894737,4148,126.126315789474,-76.5473684210526,3495,321.4,3796,4166,-108.347368421053,-73.9894736842105,3988,3829,-257.578947368421,75,0,1571,1779,413,4,4,4,4,4,4,3,4,4,4,4,4,4,4,4,4
"414",4199,272.789473684211,4147,123.042105263158,-88.8631578947368,3502,316.273684210526,3799,4177,-109.368421052632,-69.8842105263158,3992,3834,-254.505263157895,76,0,1575,1783,452,4,4,4,4,4,4,3,4,4,4,4,4,4,4,4,4
"415",4208,277.915789473684,4149,131.757894736842,-91.9368421052632,3513,316.778947368421,3805,4174,-98.0947368421053,-62.7052631578947,4004,3845,-244.242105263158,77,0,1571,1783,382,4,4,4,4,4,4,3,4,4,4,4,4,4,4,4,4
"416",4219,277.4,4153,135.863157894737,-76.0421052631579,3512,322.421052631579,3809,4165,-89.3684210526316,-65.7789473684211,4005,3839,-243.221052631579,78,0,1575,1783,511,4,4,4,4,4,4,3,4,4,4,4,4,4,4,4,4
"417",4218,269.715789473684,4154,126.631578947368,-76.0421052631579,3493,324.989473684211,3797,4169,-106.294736842105,-71.9368421052632,3990,3830,-261.684210526316,79,0,1571,1779,413,4,4,4,4,4,4,3,4,4,4,4,4,4,4,4,4
"418",4212,256.894736842105,4151,111.757894736842,-90.9157894736842,3478,324.989473684211,3778,4170,-121.168421052632,-66.2947368421053,3975,3842,-281.168421052632,80,0,1567,1779,452,4,4,4,4,4,4,3,4,4,4,4,4,4,4,4,4
"419",4207,244.073684210526,4153,94.8421052631579,-85.2736842105263,3465,323.957894736842,3767,4162,-125.778947368421,-59.6315789473684,3963,3854,-292.452631578947,81,0,1575,1775,382,4,4,4,4,4,4,3,4,4,4,4,4,4,4,4,4
"420",4208,244.578947368421,4155,91.7578947368421,-75.5263157894737,3464,322.936842105263,3769,4171,-127.831578947368,-67.3157894736842,3963,3844,-289.884210526316,82,0,1571,1775,511,4,4,4,4,4,4,3,4,4,4,4,4,4,4,4,4
"421",4217,262.021052631579,4153,110.221052631579,-78.6,3488,327.547368421053,3783,4171,-110.915789473684,-73.9894736842105,3987,3828,-266.294736842105,83,0,1575,1771,413,4,4,4,4,4,4,3,4,4,4,4,4,4,4,4,4
"422",4218,274.326315789474,4151,124.073684210526,-72.9578947368421,3503,331.652631578947,3791,4153,-91.9368421052632,-69.3684210526316,4001,3833,-253.473684210526,84,0,1571,1771,452,4,4,4,4,4,4,3,4,4,4,4,4,4,4,4,4
"423",4206,260.989473684211,4151,111.252631578947,-57.0631578947368,3488,326.526315789474,3776,4163,-107.831578947368,-63.7263157894737,3984,3848,-273.473684210526,85,0,1575,1771,382,4,4,4,4,4,4,3,4,4,4,4,4,4,4,4,4
"424",4203,245.094736842105,4151,96.3789473684211,-62.1894736842105,3464,323.452631578947,3759,4182,-135.010526315789,-63.2210526315789,3965,3850,-293.989473684211,86,0,1571,1771,511,4,4,4,4,4,4,3,4,4,4,4,4,4,4,4,4
"425",4204,234.842105263158,4145,91.2526315789474,-82.7052631578947,3446,324.473684210526,3753,4164,-136.042105263158,-67.8315789473684,3957,3846,-299.631578947368,87,0,1575,1771,413,4,4,4,4,4,4,3,4,4,4,4,4,4,4,4,4
"426",4200,225.610526315789,4142,86.6315789473684,-90.9157894736842,3439,321.905263157895,3746,4141,-133.473684210526,-77.0631578947368,3950,3837,-308.347368421053,88,0,1575,1771,452,4,4,4,4,4,4,3,4,4,4,4,4,4,4,4,4
"427",4204,229.715789473684,4142,87.6631578947368,-90.4,3457,317.294736842105,3752,4157,-138.6,-81.6842105263158,3955,3826,-303.221052631579,89,0,1571,1771,382,4,4,4,4,4,4,3,4,4,4,4,4,4,4,4,4
"428",4215,256.378947368421,4145,104.073684210526,-87.8315789473684,3482,320.368421052632,3777,4175,-121.168421052632,-78.0947368421053,3981,3828,-271.936842105263,90,0,1575,1775,511,4,4,4,4,4,4,3,4,4,4,4,4,4,4,4,4
"429",4219,273.810526315789,4144,113.305263157895,-83.7263157894737,3492,322.421052631579,3790,4162,-96.0421052631579,-77.5789473684211,4001,3836,-254.505263157895,91,0,1575,1767,413,4,4,4,4,4,4,3,4,4,4,4,4,4,4,4,4
"430",4214,270.736842105263,4145,109.715789473684,-81.1684210526316,3499,318.315789473684,3787,4153,-100.136842105263,-77.5789473684211,4000,3833,-260.136842105263,92,0,1567,1771,452,4,4,4,4,4,4,3,4,4,4,4,4,4,4,4,4
"431",4212,268.684210526316,4148,112.789473684211,-72.4526315789474,3507,321.905263157895,3787,4165,-111.936842105263,-73.9894736842105,4001,3831,-258.094736842105,93,0,1575,1771,382,4,4,4,4,4,4,3,4,4,4,4,4,4,4,4,4
"432",4218,271.757894736842,4150,117.915789473684,-60.1368421052632,3500,333.18947368421,3790,4169,-106.294736842105,-69.8842105263158,4008,3839,-248.863157894737,94,0,1575,1763,511,4,4,4,4,4,4,3,4,4,4,4,4,4,4,4,4
"433",4221,265.610526315789,4150,108.168421052632,-60.6526315789474,3480,331.136842105263,3779,4149,-102.705263157895,-68.8631578947368,3998,3847,-258.094736842105,95,0,1571,1767,413,4,4,4,4,4,4,3,4,4,4,4,4,4,4,4,4
"434",4211,247.147368421053,4146,92.2736842105263,-72.9578947368421,3459,318.315789473684,3764,4151,-119.115789473684,-69.3684210526316,3974,3850,-284.757894736842,96,0,1571,1771,452,4,4,4,4,4,4,3,4,4,4,4,4,4,4,4,4
"435",4215,243.042105263158,4149,95.3473684210526,-68.3473684210526,3465,323.452631578947,3766,4171,-130.4,-72.4526315789474,3968,3843,-294.505263157895,97,0,1575,1767,382,4,4,4,4,4,4,3,4,4,4,4,4,4,4,4,4
"436",4239,259.968421052632,4150,109.2,-51.9368421052632,3502,337.810526315789,3786,4165,-119.115789473684,-77.5789473684211,3986,3832,-276.547368421053,98,0,1571,1767,511,4,4,4,4,4,4,3,4,4,4,4,4,4,4,4,4
"437",4252,270.221052631579,4153,118.431578947368,-42.7052631578947,3518,337.294736842105,3798,4154,-110.4,-77.0631578947368,3992,3828,-271.936842105263,99,0,1571,1771,413,4,4,4,4,4,4,3,4,4,4,4,4,4,4,4,4
"438",4247,261.505263157895,4153,120.484210526316,-30.4,3511,335.242105263158,3804,4153,-117.578947368421,-72.4526315789474,3982,3829,-288.347368421053,100,0,1575,1763,452,4,4,4,4,4,4,3,4,4,4,4,4,4,4,4,4
"439",4249,260.484210526316,4154,124.073684210526,-33.4736842105263,3524,341.4,3815,4159,-122.189473684211,-70.4,3985,3839,-285.778947368421,101,0,1571,1771,382,4,4,4,4,4,4,3,4,4,4,4,4,4,4,4,4
"440",4251,266.631578947368,4154,125.610526315789,-53.4736842105263,3536,341.4,3814,4164,-116.547368421053,-70.9157894736842,3994,3851,-273.473684210526,102,0,1575,1771,511,4,4,4,4,4,4,3,4,4,4,4,4,4,4,4,4
"441",4241,265.094736842105,4155,124.073684210526,-53.4736842105263,3514,336.778947368421,3800,4163,-120.136842105263,-70.4,3991,3851,-276.042105263158,103,0,1571,1771,413,4,4,4,4,4,4,3,4,4,4,4,4,4,4,4,4
"442",4226,263.042105263158,4153,124.073684210526,-44.7578947368421,3496,333.18947368421,3796,4153,-127.831578947368,-72.4526315789474,3993,3842,-270.915789473684,104,0,1575,1771,452,4,4,4,4,4,4,3,4,4,4,4,4,4,4,4,4
"443",4222,265.610526315789,4148,123.042105263158,-54.5052631578947,3491,334.726315789474,3795,4148,-121.168421052632,-72.9578947368421,4003,3846,-259.115789473684,105,0,1571,1775,382,4,4,4,4,4,4,3,4,4,4,4,4,4,4,4,4
"444",4221,264.073684210526,4148,121.505263157895,-60.1368421052632,3477,335.242105263158,3784,4164,-111.936842105263,-68.8631578947368,4004,3853,-259.631578947368,106,0,1575,1775,511,4,4,4,4,4,4,3,4,4,4,4,4,4,4,4,4
"445",4220,266.631578947368,4148,123.557894736842,-50.4,3488,327.547368421053,3786,4170,-103.221052631579,-73.4736842105263,4007,3839,-254.505263157895,107,0,1575,1771,413,4,4,4,4,4,4,3,4,4,4,4,4,4,4,4,4
"446",4222,276.894736842105,4148,134.326315789474,-40.1368421052632,3514,326.010526315789,3800,4153,-94.5052631578947,-80.6526315789474,4017,3831,-242.705263157895,108,0,1575,1775,452,4,4,4,4,4,4,3,4,4,4,4,4,4,4,4,4
"447",4222,277.915789473684,4147,139.452631578947,-37.5789473684211,3514,331.652631578947,3803,4153,-90.9157894736842,-76.0421052631579,4022,3844,-241.168421052632,109,0,1583,1771,382,4,4,4,4,4,4,3,4,4,4,4,4,4,4,4,4
"448",4223,279.452631578947,4149,138.936842105263,-49.3684210526316,3510,329.084210526316,3805,4168,-92.9578947368421,-70.9157894736842,4022,3850,-246.810526315789,110,0,1579,1775,511,4,4,4,4,4,4,3,4,4,4,4,4,4,4,4,4
"449",4219,276.378947368421,4144,133.810526315789,-67.8315789473684,3514,320.884210526316,3807,4163,-100.652631578947,-76.5473684210526,4014,3843,-257.063157894737,111,0,1583,1775,413,4,4,4,4,4,4,3,4,4,4,4,4,4,4,4,4
"450",4210,255.347368421053,4143,122.021052631579,-70.9157894736842,3492,318.831578947368,3790,4145,-120.136842105263,-80.6526315789474,3990,3845,-277.063157894737,112,0,1583,1775,452,4,4,4,4,4,4,3,4,4,4,4,4,4,4,4,4
"451",4216,246.126315789474,4142,117.4,-53.9894736842105,3478,319.863157894737,3782,4149,-135.526315789474,-79.6315789473684,3980,3844,-285.273684210526,113,0,1583,1775,382,4,4,4,4,4,4,3,4,4,4,4,4,4,4,4,4
"452",4235,270.736842105263,4143,134.326315789474,-40.1368421052632,3512,325.494736842105,3801,4153,-124.242105263158,-80.1368421052632,4002,3835,-267.831578947368,114,0,1583,1775,511,4,4,4,4,4,4,3,4,4,4,4,4,4,4,4,4
"453",4235,280.484210526316,4144,144.073684210526,-50.9157894736842,3532,333.18947368421,3810,4152,-115.010526315789,-80.1368421052632,4017,3842,-255.526315789474,115,0,1587,1775,413,4,4,4,4,4,4,3,4,4,4,4,4,4,4,4,4
"454",4228,268.168421052632,4146,138.431578947368,-55.0105263157895,3514,333.705263157895,3801,4157,-125.273684210526,-78.0947368421053,4005,3851,-264.757894736842,116,0,1583,1771,452,4,4,4,4,4,4,3,4,4,4,4,4,4,4,4,4
"455",4232,262.536842105263,4147,133.305263157895,-31.4210526315789,3502,333.705263157895,3797,4143,-138.094736842105,-80.1368421052632,3989,3844,-281.168421052632,117,0,1583,1775,382,4,4,4,4,4,4,3,4,4,4,4,4,4,4,4,4
"456",4233,252.789473684211,4143,123.042105263158,-24.2421052631579,3501,332.168421052632,3789,4132,-147.831578947368,-82.1894736842105,3977,3844,-297.578947368421,118,0,1587,1771,511,4,4,4,4,4,4,3,4,4,4,4,4,4,4,4,4
"457",4226,232.273684210526,4146,110.221052631579,-46.8105263157895,3482,330.115789473684,3768,4147,-164.757894736842,-79.6315789473684,3959,3850,-318.6,119,0,1583,1775,413,4,4,4,4,4,4,3,4,4,4,4,4,4,4,4,4
"458",4229,225.610526315789,4143,110.221052631579,-48.8631578947368,3460,333.705263157895,3767,4156,-173.473684210526,-82.1894736842105,3952,3839,-323.221052631579,120,0,1583,1771,452,4,4,4,4,4,4,3,4,4,4,4,4,4,4,4,4
"459",4241,244.073684210526,4142,129.2,-32.4526315789474,3474,337.810526315789,3784,4143,-156.042105263158,-85.7789473684211,3969,3834,-302.18947368421,121,0,1583,1771,382,4,4,4,4,4,4,3,4,4,4,4,4,4,4,4,4
"460",4241,256.378947368421,4147,140.484210526316,-25.7789473684211,3495,337.810526315789,3789,4145,-139.115789473684,-79.6315789473684,3985,3847,-284.757894736842,122,0,1583,1771,511,4,4,4,4,4,4,3,4,4,4,4,4,4,4,4,4
"461",4232,259.452631578947,4149,140.484210526316,-35.5263157894737,3495,336.273684210526,3789,4158,-135.526315789474,-76.0421052631579,3988,3852,-280.652631578947,123,0,1579,1771,413,4,4,4,4,4,4,3,4,4,4,4,4,4,4,4,4
"462",4230,266.631578947368,4143,144.578947368421,-45.7789473684211,3502,334.726315789474,3801,4152,-128.347368421053,-80.1368421052632,3996,3849,-273.989473684211,124,0,1579,1771,452,4,4,4,4,4,4,3,4,4,4,4,4,4,4,4,4
"463",4236,283.042105263158,4144,160.989473684211,-39.6315789473684,3523,334.726315789474,3816,4155,-102.705263157895,-81.6842105263158,4019,3839,-250.4,125,0,1579,1775,382,4,4,4,4,4,4,3,4,4,4,4,4,4,4,4,4
"464",4234,294.842105263158,4148,174.326315789474,-27.8315789473684,3521,335.757894736842,3821,4168,-75.5263157894737,-79.6315789473684,4041,3834,-223.221052631579,126,0,1579,1775,511,4,4,4,4,4,4,3,4,4,4,4,4,4,4,4,4
"465",4221,283.042105263158,4145,163.042105263158,-31.4210526315789,3494,332.684210526316,3808,4158,-85.2736842105263,-80.1368421052632,4033,3849,-232.957894736842,127,0,1575,1775,413,4,4,4,4,4,4,3,4,4,4,4,4,4,4,4,4
"466",4216,259.452631578947,4146,142.536842105263,-39.1157894736842,3479,332.168421052632,3781,4140,-123.221052631579,-80.1368421052632,3999,3861,-274.505263157895,128,0,1575,1771,452,4,4,4,4,4,4,4,4,4,4,4,4,4,4,4,4
"467",4219,245.094736842105,4147,132.273684210526,-44.2421052631579,3470,335.757894736842,3759,4136,-147.831578947368,-81.1684210526316,3975,3850,-302.18947368421,0,0,1571,1779,338,4,4,4,4,4,4,3,4,4,4,4,4,4,4,4,4
"468",4221,241.505263157895,4143,131.757894736842,-49.8842105263158,3462,335.757894736842,3757,4145,-149.884210526316,-81.6842105263158,3970,3843,-308.863157894737,1,0,1575,1771,438,4,4,4,4,4,4,3,4,4,4,4,4,4,4,4,4
"469",4220,239.452631578947,4142,130.736842105263,-39.1157894736842,3464,333.705263157895,3768,4155,-141.168421052632,-79.6315789473684,3967,3846,-312.452631578947,2,0,1567,1775,461,4,4,4,4,4,4,3,4,4,4,4,4,4,4,4,4
"470",4219,246.126315789474,4147,139.452631578947,-27.3157894736842,3474,332.684210526316,3779,4159,-122.189473684211,-79.1157894736842,3975,3847,-304.242105263158,3,0,1571,1775,499,4,4,4,4,4,4,3,4,4,4,4,4,4,4,4,4
"471",4215,258.936842105263,4146,152.789473684211,-34.5052631578947,3488,332.168421052632,3788,4153,-104.242105263158,-79.1157894736842,3993,3853,-282.705263157895,4,0,1567,1775,511,4,4,4,4,4,4,3,4,4,4,4,4,4,4,4,4
"472",4214,268.684210526316,4145,163.042105263158,-42.1894736842105,3496,333.18947368421,3794,4148,-97.0631578947368,-80.1368421052632,4007,3853,-262.18947368421,5,0,1567,1775,448,4,4,4,4,4,4,3,4,4,4,4,4,4,4,4,4
"473",4215,274.842105263158,4143,171.757894736842,-45.7789473684211,3486,336.273684210526,3794,4152,-83.2210526315789,-81.6842105263158,4019,3846,-248.863157894737,6,0,1567,1775,470,4,4,4,4,4,4,3,4,4,4,4,4,4,4,4,4
"474",4207,275.863157894737,4144,165.094736842105,-46.8105263157895,3471,335.757894736842,3786,4159,-72.9578947368421,-80.6526315789474,4026,3849,-241.684210526316,7,0,1567,1775,447,4,4,4,4,4,4,3,4,4,4,4,4,4,4,4,4
"475",4197,271.757894736842,4146,143.557894736842,-34.5052631578947,3475,334.726315789474,3781,4159,-83.2210526315789,-78.6,4022,3851,-242.189473684211,8,0,1559,1775,457,4,4,4,4,4,4,3,4,4,4,4,4,4,4,4,4
"476",4202,270.736842105263,4146,134.842105263158,-31.4210526315789,3476,336.273684210526,3784,4148,-91.4210526315789,-79.6315789473684,4018,3854,-249.884210526316,9,0,1559,1779,470,4,4,4,4,4,4,3,4,4,4,4,4,4,4,4,4
"477",4205,271.252631578947,4146,139.968421052632,-46.8105263157895,3471,337.810526315789,3788,4150,-86.2947368421053,-80.1368421052632,4018,3863,-253.989473684211,10,0,1563,1775,511,4,4,4,4,4,4,3,4,4,4,4,4,4,4,4,4
"478",4203,276.378947368421,4147,141.505263157895,-50.4,3487,336.778947368421,3790,4164,-79.6315789473684,-78.6,4024,3864,-245.273684210526,11,0,1555,1775,413,4,4,4,4,4,4,3,4,4,4,4,4,4,4,4,4
"479",4202,283.042105263158,4148,141.505263157895,-39.6315789473684,3500,334.221052631579,3793,4162,-76.0421052631579,-78.6,4029,3859,-238.094736842105,12,0,1559,1775,452,4,4,4,4,4,4,3,4,4,4,4,4,4,4,4,4
"480",4195,273.810526315789,4147,135.347368421053,-36.0421052631579,3481,333.705263157895,3788,4153,-79.1157894736842,-77.0631578947368,4019,3863,-253.989473684211,13,0,1559,1775,382,4,4,4,4,4,4,3,4,4,4,4,4,4,4,4,4
"481",4186,258.936842105263,4146,123.042105263158,-39.6315789473684,3459,337.294736842105,3771,4146,-88.3473684210526,-78.0947368421053,4002,3858,-277.063157894737,14,0,1559,1771,511,4,4,4,4,4,4,3,4,4,4,4,4,4,4,4,4
"482",4186,256.378947368421,4143,122.021052631579,-42.7052631578947,3458,337.294736842105,3765,4143,-86.2947368421053,-85.2736842105263,3998,3842,-279.115789473684,15,0,1555,1775,413,4,4,4,4,4,4,3,4,4,4,4,4,4,4,4,4
"483",4189,264.073684210526,4147,128.684210526316,-42.7052631578947,3469,335.242105263158,3776,4156,-78.6,-82.7052631578947,4007,3850,-270.915789473684,16,0,1559,1775,0,4,4,4,4,4,4,3,4,4,4,4,4,4,4,4,4
"484",4186,260.989473684211,4149,117.4,-45.7789473684211,3475,336.778947368421,3775,4165,-86.2947368421053,-74.5052631578947,4004,3869,-276.042105263158,17,0,1559,1775,0,4,4,4,4,4,4,3,4,4,4,4,4,4,4,4,4
"485",4183,249.2,4146,97.9157894736842,-46.8105263157895,3464,339.347368421053,3757,4152,-97.5789473684211,-77.0631578947368,3988,3866,-295.526315789474,18,0,1559,1779,0,4,4,4,4,4,4,3,4,4,4,4,4,4,4,4,4
"486",4184,234.326315789474,4146,90.2210526315789,-33.4736842105263,3444,335.242105263158,3746,4149,-103.726315789474,-82.1894736842105,3970,3857,-316.042105263158,19,0,1563,1775,0,4,4,4,4,4,4,3,4,4,4,4,4,4,4,4,4
"487",4193,230.736842105263,4150,95.3473684210526,-23.7263157894737,3443,338.315789473684,3750,4156,-109.368421052632,-78.6,3966,3862,-320.652631578947,20,0,1559,1779,0,4,4,4,4,4,4,3,4,4,4,4,4,4,4,4,4
"488",4200,248.684210526316,4151,104.073684210526,-30.9157894736842,3458,-343.842105263158,3763,4157,-98.6,-77.5789473684211,3983,3864,-300.652631578947,21,0,1563,1775,0,4,4,4,4,4,4,3,4,4,4,4,4,4,4,4,4
"489",4192,260.484210526316,4148,112.789473684211,-35.5263157894737,3469,340.884210526316,3770,4166,-79.1157894736842,-78.6,3998,3863,-287.831578947368,22,0,1559,1779,0,4,4,4,4,4,4,3,4,4,4,4,4,4,4,4,4
"490",4192,253.305263157895,4150,117.915789473684,-33.9894736842105,3471,337.810526315789,3768,4161,-75.5263157894737,-77.5789473684211,3994,3866,-294.505263157895,23,0,1559,1775,0,4,4,4,4,4,4,3,4,4,4,4,4,4,4,4,4
"491",4202,256.894736842105,4154,124.578947368421,-24.7578947368421,3482,-341.273684210526,3775,4143,-71.9368421052632,-78.6,3999,3867,-283.726315789474,24,0,1559,1775,0,4,4,4,4,4,4,3,4,4,4,4,4,4,4,4,4
"492",4198,276.378947368421,4153,133.305263157895,-17.0631578947368,3497,-340.252631578947,3792,4149,-61.6842105263158,-79.1157894736842,4019,3865,-258.6,25,0,1563,1775,0,4,4,4,4,4,4,3,4,4,4,4,4,4,4,4,4
"493",4185,279.452631578947,4145,131.757894736842,-27.3157894736842,3496,335.757894736842,3792,4162,-61.6842105263158,-77.5789473684211,4024,3865,-255.010526315789,26,0,1559,1771,0,4,4,4,4,4,4,3,4,4,4,4,4,4,4,4,4
"494",4183,273.810526315789,4146,131.252631578947,-38.0947368421053,3487,337.810526315789,3784,4154,-68.8631578947368,-77.0631578947368,4020,3867,-259.115789473684,27,0,1559,1775,0,4,4,4,4,4,4,3,4,4,4,4,4,4,4,4,4
"495",4188,280.989473684211,4152,140.484210526316,-32.9578947368421,3498,-339.736842105263,3791,4146,-64.7578947368421,-78.0947368421053,4030,3874,-247.831578947368,28,0,1559,1771,0,4,4,4,4,4,4,3,4,4,4,4,4,4,4,4,4
"496",4197,296.894736842105,4152,150.736842105263,-23.2210526315789,3513,-337.684210526316,3808,4157,-50.4,-77.0631578947368,4046,3876,-232.452631578947,29,0,1559,1775,0,4,4,4,4,4,4,3,4,4,4,4,4,4,4,4,4
"497",4203,302.536842105263,4151,154.842105263158,-17.5789473684211,3513,-340.252631578947,3815,4169,-35.0105263157895,-77.0631578947368,4053,3867,-227.315789473684,30,0,1563,1775,0,4,4,4,4,4,4,3,4,4,4,4,4,4,4,4,4
"498",4192,299.968421052632,4154,155.863157894737,-15.0105263157895,3510,-341.273684210526,3807,4166,-33.4736842105263,-78.6,4049,3863,-230.915789473684,31,0,1559,1779,0,4,4,4,4,4,4,3,4,4,4,4,4,4,4,4,4
"499",4182,300.989473684211,4151,153.810526315789,-18.6,3511,-342.305263157895,3802,4155,-37.5789473684211,-80.1368421052632,4048,3865,-229.368421052632,32,0,1563,1779,0,4,4,4,4,4,4,3,4,4,4,4,4,4,4,4,4
"500",4187,305.610526315789,4143,157.915789473684,-21.1684210526316,3514,-343.842105263158,3812,4158,-24.2421052631579,-82.1894736842105,4058,3862,-213.989473684211,33,0,1559,1779,0,4,4,4,4,4,4,3,4,4,4,4,4,4,4,4,4
"501",4198,305.610526315789,4148,164.073684210526,-18.0947368421053,3516,-342.305263157895,3819,4171,-15.5263157894737,-81.1684210526316,4065,3869,-210.4,34,0,1563,1775,0,4,4,4,4,4,4,3,4,4,4,4,4,4,4,4,4
"502",4202,305.610526315789,4155,161.505263157895,-8.86315789473684,3513,-337.684210526316,3815,4169,-23.7263157894737,-77.0631578947368,4061,3876,-218.6,35,0,1559,1783,0,4,4,4,4,4,4,3,4,4,4,4,4,4,4,4,4
"503",4202,305.094736842105,4155,163.042105263158,-1.16842105263158,3508,-335.126315789474,3813,4158,-24.7578947368421,-76.0421052631579,4057,3867,-217.578947368421,36,0,1559,1779,0,4,4,4,4,4,4,3,4,4,4,4,4,4,4,4,4
"504",4203,305.610526315789,4152,169.2,-4.2421052631579,3515,-337.168421052632,3816,4161,-18.0947368421053,-78.0947368421053,4063,3866,-212.452631578947,37,0,1563,1779,0,4,4,4,4,4,4,3,4,4,4,4,4,4,4,4,4
"505",4204,317.915789473684,4154,176.378947368421,-4.2421052631579,3533,-339.736842105263,3825,4168,-16.5473684210526,-73.4736842105263,4077,3881,-202.705263157895,38,0,1563,1779,0,4,4,4,4,4,4,3,4,4,4,4,4,4,4,4,4
"506",4199,325.094736842105,4154,180.989473684211,-4.2421052631579,3534,-339.221052631579,3830,4169,-12.9578947368421,-70.4,4084,3886,-195.010526315789,39,0,1555,1783,0,4,4,4,4,4,4,3,4,4,4,4,4,4,4,4,4
"507",4195,308.168421052632,4153,171.757894736842,-19.1157894736842,3503,-339.736842105263,3811,4167,-18.6,-75.0105263157895,4065,3880,-210.4,40,0,1563,1783,0,4,4,4,4,4,4,3,4,4,4,4,4,4,4,4,4
"508",4196,288.168421052632,4153,152.273684210526,-22.7052631578947,3479,-340.768421052632,3784,4167,-41.1684210526316,-78.0947368421053,4042,3882,-235.010526315789,41,0,1559,1779,0,4,4,4,4,4,4,3,4,4,4,4,4,4,4,4,4
"509",4200,289.715789473684,4155,151.757894736842,-4.7578947368421,3489,-338.2,3782,4167,-42.1894736842105,-75.0105263157895,4043,3884,-236.042105263158,42,0,1559,1783,0,4,4,4,4,4,4,3,4,4,4,4,4,4,4,4,4
"510",4199,304.578947368421,4153,166.631578947368,-2.70526315789474,3504,-337.168421052632,3802,4165,-17.0631578947368,-78.0947368421053,4057,3872,-220.136842105263,43,0,1555,1783,0,4,4,4,4,4,4,3,4,4,4,4,4,4,4,4,4
"511",4204,315.863157894737,4155,176.894736842105,-11.9368421052632,3507,-339.736842105263,3815,4165,0.368421052631579,-81.1684210526316,4070,3865,-204.242105263158,44,0,1563,1783,0,4,4,4,4,4,4,3,4,4,4,4,4,4,4,4,4
"512",4212,320.484210526316,4161,185.610526315789,-2.18947368421053,3510,-331.536842105263,3817,4175,10.1157894736842,-70.9157894736842,4084,3881,-190.915789473684,45,0,1555,1783,0,4,4,4,4,4,4,3,4,4,4,4,4,4,4,4,4
"513",4216,323.042105263158,4164,189.715789473684,4.98947368421053,3513,-322.305263157895,3815,4179,14.2210526315789,-60.6526315789474,4089,3898,-188.347368421053,46,0,1559,1787,0,4,4,4,4,4,4,3,4,4,4,4,4,4,4,4,4
"514",4213,322.021052631579,4164,183.042105263158,-10.9157894736842,3511,-329.989473684211,3816,4168,1.4,-65.7789473684211,4081,3896,-194.505263157895,47,0,1559,1779,0,4,4,4,4,4,4,3,4,4,4,4,4,4,4,4,4
"515",4206,318.431578947368,4158,176.894736842105,-20.6526315789474,3515,-340.252631578947,3815,4165,-16.5473684210526,-73.9894736842105,4073,3891,-199.115789473684,48,0,1559,1787,0,4,4,4,4,4,4,3,4,4,4,4,4,4,4,4,4
"516",4205,322.021052631579,4153,184.578947368421,-14.5052631578947,3520,-338.715789473684,3815,4170,-17.0631578947368,-75.0105263157895,4077,3886,-197.578947368421,49,0,1563,1787,0,4,4,4,4,4,4,3,4,4,4,4,4,4,4,4,4
"517",4216,333.305263157895,4154,193.810526315789,-16.0421052631579,3521,-336.663157894737,3833,4169,-3.22105263157895,-77.0631578947368,4090,3878,-183.726315789474,50,0,1559,1783,0,4,4,4,4,4,4,3,4,4,4,4,4,4,4,4,4
"518",4219,344.578947368421,4156,198.431578947368,-22.7052631578947,3535,-338.715789473684,3850,4169,10.1157894736842,-77.5789473684211,4106,3876,-164.757894736842,51,0,1559,1783,0,4,4,4,4,4,4,3,4,4,4,4,4,4,4,4,4
"519",4208,-339.631578947368,4153,196.378947368421,-20.1368421052632,3556,-338.2,3842,4170,15.2421052631579,-72.4526315789474,4112,3886,-159.115789473684,52,0,1559,1783,0,4,4,4,4,4,4,3,4,4,4,4,4,4,4,4,4
"520",4203,-341.684210526316,4154,192.789473684211,-15.5263157894737,3554,-336.147368421053,3832,4168,16.7789473684211,-68.8631578947368,4108,3898,-166.294736842105,53,0,1567,1783,0,4,4,4,4,4,4,3,4,4,4,4,4,4,4,4,4
"521",4206,342.021052631579,4156,184.578947368421,-18.0947368421053,3539,-337.168421052632,3832,4172,16.7789473684211,-70.9157894736842,4103,3897,-172.957894736842,54,0,1559,1783,0,4,4,4,4,4,4,3,4,4,4,4,4,4,4,4,4
"522",4200,333.305263157895,4154,174.326315789474,-21.1684210526316,3526,-340.252631578947,3823,4167,9.08421052631579,-77.0631578947368,4093,3884,-185.778947368421,55,0,1563,1787,0,4,4,4,4,4,4,3,4,4,4,4,4,4,4,4,4
"523",4199,321.505263157895,4151,169.2,-19.6315789473684,3510,-338.715789473684,3810,4152,-4.7578947368421,-81.6842105263158,4078,3876,-200.652631578947,56,0,1567,1783,0,4,4,4,4,4,4,3,4,4,4,4,4,4,4,4,4
"524",4203,310.736842105263,4149,162.021052631579,-14.5052631578947,3498,-335.631578947368,3799,4157,-23.7263157894737,-80.6526315789474,4064,3878,-213.473684210526,57,0,1563,1787,0,4,4,4,4,4,4,3,4,4,4,4,4,4,4,4,4
"525",4191,296.894736842105,4151,145.610526315789,-15.5263157894737,3483,-343.326315789474,3775,4171,-42.1894736842105,-78.6,4046,3881,-235.010526315789,58,0,1567,1783,0,4,4,4,4,4,4,3,4,4,4,4,4,4,4,4,4
"526",4178,282.536842105263,4151,133.305263157895,-29.8842105263158,3458,342.936842105263,3760,4168,-44.7578947368421,-80.1368421052632,4032,3889,-247.831578947368,59,0,1567,1787,0,4,4,4,4,4,4,3,4,4,4,4,4,4,4,4,4
"527",4196,286.126315789474,4151,141.505263157895,-35.5263157894737,3460,-339.221052631579,3771,4163,-32.9578947368421,-79.1157894736842,4042,3894,-231.936842105263,60,0,1567,1783,0,4,4,4,4,4,4,3,4,4,4,4,4,4,4,4,4
"528",4230,301.505263157895,4153,159.452631578947,-12.9578947368421,3498,-334.610526315789,3793,4163,-25.2736842105263,-78.0947368421053,4064,3884,-206.810526315789,61,0,1563,1787,0,4,4,4,4,4,4,3,4,4,4,4,4,4,4,4,4
"529",4247,311.757894736842,4155,171.757894736842,14.7263157894737,3521,-329.484210526316,3812,4151,-30.9157894736842,-80.6526315789474,4071,3874,-198.094736842105,62,0,1571,1787,0,4,4,4,4,4,4,3,4,4,4,4,4,4,4,4,4
"530",4243,308.684210526316,4155,166.126315789474,18.3157894736842,3510,-320.768421052632,3810,4151,-44.7578947368421,-77.5789473684211,4066,3886,-205.273684210526,63,0,1567,1787,0,4,4,4,4,4,4,3,4,4,4,4,4,4,4,4,4
"531",4235,295.347368421053,4156,150.221052631579,3.45263157894737,3492,-322.810526315789,3791,4168,-55.0105263157895,-70.9157894736842,4055,3901,-226.294736842105,64,0,1567,1791,339,4,4,4,4,4,4,3,4,4,4,4,4,4,4,4,4
"532",4232,295.347368421053,4154,153.305263157895,-7.83157894736842,3497,-333.578947368421,3794,4171,-35.5263157894737,-74.5052631578947,4057,3888,-228.347368421053,65,0,1571,1783,438,4,4,4,4,4,4,3,4,4,4,4,4,4,4,4,4
"533",4234,322.021052631579,4153,180.989473684211,-9.36842105263158,3525,-336.663157894737,3818,4174,3.95789473684211,-81.1684210526316,4085,3874,-190.4,66,0,1567,1787,461,4,4,4,4,4,4,3,4,4,4,4,4,4,4,4,4
"534",4233,336.894736842105,4155,188.684210526316,-13.4736842105263,3531,-336.147368421053,3824,4185,24.4736842105263,-79.1157894736842,4102,3879,-165.273684210526,67,0,1567,1787,501,4,4,4,4,4,4,3,4,4,4,4,4,4,4,4,4
"535",4231,322.021052631579,4154,166.126315789474,-23.7263157894737,3506,-338.715789473684,3815,4178,19.8631578947368,-77.5789473684211,4091,3884,-177.063157894737,68,0,1567,1787,510,4,4,4,4,4,4,3,4,4,4,4,4,4,4,4,4
"536",4230,316.378947368421,4153,151.757894736842,-30.9157894736842,3498,-338.2,3809,4168,12.1684210526316,-80.6526315789474,4085,3884,-186.294736842105,69,0,1571,1787,448,4,4,4,4,4,4,3,4,4,4,4,4,4,4,4,4
"537",4221,318.936842105263,4154,152.273684210526,-35.5263157894737,3511,-337.168421052632,3804,4171,4.98947368421053,-79.6315789473684,4085,3894,-186.294736842105,70,0,1571,1791,470,4,4,4,4,4,4,3,4,4,4,4,4,4,4,4,4
"538",4213,304.578947368421,4153,139.452631578947,-38.0947368421053,3501,-339.221052631579,3791,4168,-14.5052631578947,-78.6,4063,3896,-205.778947368421,71,0,1571,1791,447,4,4,4,4,4,4,3,4,4,4,4,4,4,4,4,4
"539",4220,291.757894736842,4151,124.073684210526,-29.8842105263158,3482,-339.736842105263,3783,4164,-31.4210526315789,-80.1368421052632,4046,3889,-227.315789473684,72,0,1575,1791,457,4,4,4,4,4,4,3,4,4,4,4,4,4,4,4,4
"540",4231,295.863157894737,4154,128.168421052632,-16.5473684210526,3488,-335.631578947368,3784,4173,-37.0631578947368,-77.0631578947368,4050,3894,-228.863157894737,73,0,1571,1791,470,4,4,4,4,4,4,3,4,4,4,4,4,4,4,4,4
"541",4232,298.936842105263,4155,129.2,-14.5052631578947,3500,-333.073684210526,3787,4163,-42.1894736842105,-76.5473684210526,4052,3899,-226.810526315789,74,0,1575,1795,511,4,4,4,4,4,4,3,4,4,4,4,4,4,4,4,4
"542",4231,292.273684210526,4151,123.042105263158,-24.2421052631579,3489,-335.126315789474,3785,4146,-50.9157894736842,-83.7263157894737,4045,3889,-229.368421052632,75,0,1575,1791,413,4,4,4,4,4,4,3,4,4,4,4,4,4,4,4,4
"543",4230,283.557894736842,4147,117.4,-33.9894736842105,3472,-337.684210526316,3775,4159,-59.6315789473684,-89.3684210526316,4035,3878,-237.578947368421,76,0,1571,1795,452,4,4,4,4,4,4,3,4,4,4,4,4,4,4,4,4
"544",4231,281.505263157895,4149,115.863157894737,-28.8631578947368,3475,-337.684210526316,3771,4170,-62.7052631578947,-87.8315789473684,4030,3878,-246.294736842105,77,0,1575,1791,382,4,4,4,4,4,4,3,4,4,4,4,4,4,4,4,4
"545",4240,287.663157894737,4152,117.915789473684,-7.31578947368421,3491,-337.168421052632,3779,4157,-58.0947368421053,-84.7578947368421,4035,3883,-245.778947368421,78,0,1575,1795,511,4,4,4,4,4,4,3,4,4,4,4,4,4,4,4,4
"546",4249,297.915789473684,4152,125.610526315789,7.54736842105263,3504,-331.536842105263,3792,4152,-49.8842105263158,-85.7789473684211,4050,3881,-226.294736842105,79,0,1575,1795,413,4,4,4,4,4,4,3,4,4,4,4,4,4,4,4,4
"547",4249,306.126315789474,4150,135.347368421053,3.95789473684211,3513,-324.863157894737,3798,4157,-48.8631578947368,-88.3473684210526,4059,3876,-211.421052631579,80,0,1571,1795,452,4,4,4,4,4,4,3,4,4,4,4,4,4,4,4,4
"548",4247,311.252631578947,4151,137.4,-1.16842105263158,3522,-324.357894736842,3805,4150,-48.3473684210526,-85.7789473684211,4062,3884,-212.957894736842,81,0,1575,1791,382,4,4,4,4,4,4,3,4,4,4,4,4,4,4,4,4
"549",4253,318.936842105263,4153,140.484210526316,-0.652631578947368,3527,-324.863157894737,3816,4153,-40.6526315789474,-80.1368421052632,4072,3894,-202.189473684211,82,0,1571,1791,511,4,4,4,4,4,4,3,4,4,4,4,4,4,4,4,4
"550",4255,324.578947368421,4153,145.610526315789,4.98947368421053,3531,-321.789473684211,3822,4170,-40.1368421052632,-78.0947368421053,4081,3891,-188.863157894737,83,0,1575,1787,413,4,4,4,4,4,4,3,4,4,4,4,4,4,4,4,4
"551",4248,319.452631578947,4152,140.484210526316,14.2210526315789,3526,-320.768421052632,3816,4169,-48.3473684210526,-82.7052631578947,4070,3881,-201.168421052632,84,0,1571,1783,452,4,4,4,4,4,4,3,4,4,4,4,4,4,4,4,4
"552",4245,319.452631578947,4150,137.4,17.8105263157895,3524,-324.357894736842,3811,4156,-42.7052631578947,-89.3684210526316,4068,3869,-205.778947368421,85,0,1571,1787,382,4,4,4,4,4,4,3,4,4,4,4,4,4,4,4,4
"553",4254,333.810526315789,4150,152.273684210526,11.6526315789474,3541,-325.378947368421,3825,4153,-25.7789473684211,-90.4,4088,3867,-187.315789473684,86,0,1575,1779,511,4,4,4,4,4,4,3,4,4,4,4,4,4,4,4,4
"554",4257,331.757894736842,4151,154.326315789474,0.884210526315789,3550,-323.842105263158,3826,4152,-27.3157894736842,-83.2210526315789,4085,3888,-188.347368421053,87,0,1567,1783,413,4,4,4,4,4,4,3,4,4,4,4,4,4,4,4,4
"555",4249,313.305263157895,4153,135.863157894737,-0.136842105263158,3527,-322.810526315789,3807,4154,-47.3157894736842,-77.5789473684211,4061,3904,-210.4,88,0,1567,1783,452,4,4,4,4,4,4,3,4,4,4,4,4,4,4,4,4
"556",4247,302.536842105263,4153,125.094736842105,12.1684210526316,3505,-322.810526315789,3795,4167,-59.6315789473684,-80.1368421052632,4050,3894,-224.242105263158,89,0,1571,1783,382,4,4,4,4,4,4,3,4,4,4,4,4,4,4,4,4
"557",4256,300.989473684211,4154,126.631578947368,19.8631578947368,3506,-320.768421052632,3798,4167,-58.6,-80.6526315789474,4048,3889,-230.915789473684,90,0,1567,1779,511,4,4,4,4,4,4,3,4,4,4,4,4,4,4,4,4
"558",4264,300.989473684211,4154,124.578947368421,14.2210526315789,3511,-318.715789473684,3797,4154,-52.9578947368421,-80.1368421052632,4047,3894,-229.884210526316,91,0,1563,1783,413,4,4,4,4,4,4,3,4,4,4,4,4,4,4,4,4
"559",4264,307.663157894737,4151,127.663157894737,9.6,3516,-318.715789473684,3798,4156,-49.8842105263158,-86.2947368421053,4053,3885,-224.757894736842,92,0,1567,1783,452,4,4,4,4,4,4,3,4,4,4,4,4,4,4,4,4
"560",4263,310.221052631579,4150,136.378947368421,11.1368421052632,3524,-322.810526315789,3803,4156,-52.4526315789474,-90.9157894736842,4059,3874,-226.810526315789,93,0,1563,1779,382,4,4,4,4,4,4,3,4,4,4,4,4,4,4,4,4
"561",4264,306.631578947368,4153,136.378947368421,15.7578947368421,3522,-320.768421052632,3797,4150,-48.8631578947368,-85.7789473684211,4056,3876,-223.221052631579,94,0,1559,1783,511,4,4,4,4,4,4,3,4,4,4,4,4,4,4,4,4
"562",4266,312.789473684211,4155,134.842105263158,17.8105263157895,3521,-313.073684210526,3802,4163,-35.0105263157895,-79.1157894736842,4062,3886,-212.452631578947,95,0,1559,1779,413,4,4,4,4,4,4,3,4,4,4,4,4,4,4,4,4
"563",4266,322.021052631579,4153,138.936842105263,12.1684210526316,3526,-314.610526315789,3813,4176,-28.8631578947368,-76.5473684210526,4070,3893,-208.863157894737,96,0,1559,1779,452,4,4,4,4,4,4,3,4,4,4,4,4,4,4,4,4
"564",4263,319.452631578947,4156,140.484210526316,14.2210526315789,3523,-322.305263157895,3809,4167,-35.0105263157895,-76.0421052631579,4069,3896,-213.473684210526,97,0,1555,1775,382,4,4,4,4,4,4,3,4,4,4,4,4,4,4,4,4
"565",4263,316.378947368421,4157,134.842105263158,21.4,3524,-321.273684210526,3804,4163,-34.5052631578947,-73.9894736842105,4067,3901,-213.989473684211,98,0,1555,1779,511,4,4,4,4,4,4,3,4,4,4,4,4,4,4,4,4
"566",4272,335.347368421053,4155,144.578947368421,17.2947368421053,3542,-317.684210526316,3821,4176,-17.5789473684211,-72.4526315789474,4083,3905,-200.136842105263,99,0,1555,1775,413,4,4,4,4,4,4,3,4,4,4,4,4,4,4,4,4
"567",4282,-338.094736842105,4154,160.484210526316,18.3157894736842,3563,-318.2,3842,4183,2.42105263157895,-71.4210526315789,4107,3907,-177.578947368421,100,0,1547,1779,452,4,4,4,4,4,4,3,4,4,4,4,4,4,4,4,4
"568",4281,-344.757894736842,4157,160.989473684211,27.0421052631579,3559,-311.021052631579,3837,4170,1.4,-70.9157894736842,4107,3914,-175.526315789474,101,0,1551,1779,382,4,4,4,4,4,4,3,4,4,4,4,4,4,4,4,4
"569",4277,331.252631578947,4157,149.2,29.0842105263158,3534,-307.431578947368,3819,4162,-15.5263157894737,-71.4210526315789,4086,3913,-195.010526315789,102,0,1547,1775,511,4,4,4,4,4,4,3,4,4,4,4,4,4,4,4,4
"570",4278,330.221052631579,4155,144.073684210526,29.6,3524,-316.663157894737,3813,4178,-19.6315789473684,-72.9578947368421,4080,3896,-202.189473684211,103,0,1547,1779,413,4,4,4,4,4,4,3,4,4,4,4,4,4,4,4,4
