"","AF3","AF4","F3","F4","F7","F8","FC5","FC6","O1","O2","P7","P8","T7","T8","COUNTER","INTERPOLATED","GYROX","GYROY","RAW_CQ","CQ_CMS","CQ_F7","CQ_T7","CQ_O2","CQ_FC6","CQ_AF4","CQ_F3","CQ_P7","CQ_P8","CQ_F4","CQ_AF3","CQ_FC5","CQ_O1","CQ_T8","CQ_F8","CQ_DRL"
"1",3619,-11.8315789473684,3692,62.1263157894737,332.168421052632,3512,242.421052631579,3448,4023,-270.4,260.989473684211,3880,3797,-248.347368421053,36,0,1559,1771,0,4,4,4,4,4,4,4,4,4,4,4,4,4,4,4,4
"2",3622,-4.13684210526316,3697,61.6105263157895,334.221052631579,3511,241.4,3445,4024,-271.936842105263,258.936842105263,3878,3804,-257.063157894737,37,0,1555,1775,0,4,4,4,4,4,4,4,4,4,4,4,4,4,4,4,4
"3",3623,-1.06315789473684,3701,61.6105263157895,334.726315789474,3510,239.863157894737,3441,4023,-276.547368421053,259.968421052632,3873,3805,-258.6,38,0,1559,1775,0,4,4,4,4,4,4,4,4,4,4,4,4,4,4,4,4
"4",3626,-3.10526315789474,3706,61.6105263157895,331.136842105263,3509,242.936842105263,3437,4022,-280.136842105263,262.536842105263,3866,3798,-260.136842105263,39,0,1559,1771,0,4,4,4,4,4,4,4,4,4,4,4,4,4,4,4,4
"5",3631,-2.08421052631579,3716,62.1263157894737,332.168421052632,3510,247.042105263158,3439,4024,-277.578947368421,265.094736842105,3864,3802,-262.18947368421,40,0,1555,1775,0,4,4,4,4,4,4,4,4,4,4,4,4,4,4,4,4
"6",3634,0.989473684210526,3731,62.1263157894737,337.294736842105,3511,246.010526315789,3440,4025,-273.989473684211,266.126315789474,3866,3806,-260.136842105263,41,0,1559,1771,0,4,4,4,4,4,4,4,4,4,4,4,4,4,4,4,4
"7",3635,-4.13684210526316,3743,55.9789473684211,333.705263157895,3509,240.884210526316,3433,4019,-282.18947368421,264.073684210526,3862,3805,-268.863157894737,42,0,1559,1771,0,4,4,4,4,4,4,4,4,4,4,4,4,4,4,4,4
"8",3636,-10.2842105263158,3752,51.8736842105263,322.936842105263,3508,239.347368421053,3430,4017,-289.884210526316,266.126315789474,3859,3800,-279.115789473684,43,0,1559,1771,0,4,4,4,4,4,4,4,4,4,4,4,4,4,4,4,4
"9",3639,-5.15789473684211,3763,59.0526315789474,319.863157894737,3510,242.421052631579,3437,4021,-281.684210526316,273.305263157895,3863,3801,-269.884210526316,44,0,1555,1775,0,4,4,4,4,4,4,4,4,4,4,4,4,4,4,4,4
"10",3638,-2.6,3770,62.6421052631579,322.936842105263,3514,243.452631578947,3443,4028,-273.473684210526,278.936842105263,3867,3807,-262.18947368421,45,0,1563,1771,0,4,4,4,4,4,4,4,4,4,4,4,4,4,4,4,4
"11",3636,-12.8526315789474,3788,53.9263157894737,322.421052631579,3514,242.421052631579,3438,4033,-282.705263157895,281.505263157895,3863,3808,-270.4,46,0,1555,1771,0,4,4,4,4,4,4,4,4,4,4,4,4,4,4,4,4
"12",3636,-17.4631578947368,3819,48.7894736842105,319.347368421053,3510,240.884210526316,3433,4027,-294.505263157895,280.484210526316,3856,3802,-280.652631578947,47,0,1559,1775,0,4,4,4,4,4,4,4,4,4,4,4,4,4,4,4,4
"13",3634,-15.4210526315789,3843,50.8421052631579,318.315789473684,3508,237.294736842105,3431,4023,-296.042105263158,276.894736842105,3848,3798,-288.347368421053,48,0,1555,1771,0,4,4,4,4,4,4,4,4,4,4,4,4,4,4,4,4
"14",3633,-12.8526315789474,3849,55.9789473684211,319.347368421053,3511,234.221052631579,3434,4025,-293.989473684211,276.378947368421,3848,3801,-290.4,49,0,1555,1775,0,4,4,4,4,4,4,4,4,4,4,4,4,4,4,4,4
"15",3637,-4.65263157894737,3854,60.5894736842105,320.884210526316,3513,232.684210526316,3437,4024,-290.915789473684,276.378947368421,3857,3801,-285.273684210526,50,0,1559,1771,0,4,4,4,4,4,4,4,4,4,4,4,4,4,4,4,4
"16",3639,-0.0315789473684211,3863,60.5894736842105,320.368421052632,3512,234.726315789474,3439,4019,-288.347368421053,272.789473684211,3862,3801,-285.778947368421,51,0,1555,1775,0,4,4,4,4,4,4,4,4,4,4,4,4,4,4,4,4
"17",3636,-4.13684210526316,3864,59.5684210526316,317.810526315789,3516,240.884210526316,3438,4019,-287.315789473684,275.347368421053,3855,3801,-291.421052631579,52,0,1559,1771,0,4,4,4,4,4,4,4,4,4,4,4,4,4,4,4,4
"18",3636,-5.15789473684211,3863,60.0736842105263,318.831578947368,3519,240.368421052632,3434,4021,-286.810526315789,279.968421052632,3848,3802,-290.4,53,0,1555,1779,0,4,4,4,4,4,4,4,4,4,4,4,4,4,4,4,4
"19",3636,-2.08421052631579,3867,64.178947368421,320.368421052632,3518,233.189473684211,3433,4018,-282.18947368421,278.936842105263,3853,3801,-291.421052631579,54,0,1555,1775,0,4,4,4,4,4,4,4,4,4,4,4,4,4,4,4,4
"20",3634,-4.13684210526316,3876,66.7473684210526,316.778947368421,3520,234.726315789474,3434,4020,-279.115789473684,282.021052631579,3859,3801,-295.010526315789,55,0,1551,1775,0,4,4,4,4,4,4,4,4,4,4,4,4,4,4,4,4
"21",3634,-3.62105263157895,3886,67.2526315789474,319.347368421053,3523,241.4,3434,4028,-278.094736842105,290.221052631579,3858,3801,-291.936842105263,56,0,1559,1779,0,4,4,4,4,4,4,4,4,4,4,4,4,4,4,4,4
"22",3636,-3.10526315789474,3893,64.6947368421053,319.347368421053,3521,242.421052631579,3432,4032,-277.578947368421,290.736842105263,3856,3803,-291.421052631579,57,0,1555,1771,0,4,4,4,4,4,4,4,4,4,4,4,4,4,4,4,4
"23",3636,-2.08421052631579,3897,66.7473684210526,300.884210526316,3521,240.884210526316,3433,4029,-276.042105263158,286.126315789474,3859,3801,-294.505263157895,58,0,1555,1775,0,4,4,4,4,4,4,4,4,4,4,4,4,4,4,4,4
"24",3635,10.7368421052632,3901,79.5684210526316,281.905263157895,3529,240.884210526316,3440,4028,-265.273684210526,286.631578947368,3869,3796,-287.831578947368,59,0,1559,1775,0,4,4,4,4,4,4,4,4,4,4,4,4,4,4,4,4
"25",3636,37.4,3910,93.9263157894737,283.452631578947,3546,244.989473684211,3447,4031,-247.831578947368,292.273684210526,3880,3798,-271.936842105263,60,0,1555,1775,0,4,4,4,4,4,4,4,4,4,4,4,4,4,4,4,4
"26",3635,58.9368421052632,3921,97,289.6,3558,252.684210526316,3449,4031,-240.136842105263,296.894736842105,3885,3804,-263.726315789474,61,0,1555,1771,0,4,4,4,4,4,4,4,4,4,4,4,4,4,4,4,4
"27",3632,62.5368421052632,3925,93.9263157894737,285.494736842105,3549,251.136842105263,3440,4027,-241.684210526316,297.4,3880,3803,-271.421052631579,62,0,1555,1775,0,4,4,4,4,4,4,4,4,4,4,4,4,4,4,4,4
"28",3635,63.0421052631579,3925,92.3894736842105,286.010526315789,3543,247.547368421053,3434,4023,-249.368421052632,294.842105263158,3877,3799,-279.631578947368,63,0,1563,1771,0,4,4,4,4,4,4,4,4,4,4,4,4,4,4,4,4
"29",3645,73.3052631578947,3929,96.4842105263158,290.631578947368,3555,253.189473684211,3440,4020,-257.063157894737,297.4,3878,3803,-276.547368421053,64,0,1551,1775,432,4,4,4,4,4,4,4,4,4,4,4,4,4,4,4,4
"30",3654,86.1263157894737,3940,104.694736842105,290.631578947368,3561,257.294736842105,3447,4021,-252.957894736842,303.042105263158,3878,3805,-273.473684210526,65,0,1559,1775,475,4,4,4,4,4,4,4,4,4,4,4,4,4,4,4,4
"31",3662,90.7368421052632,3950,109.821052631579,288.578947368421,3558,254.221052631579,3447,4021,-243.726315789474,304.073684210526,3880,3802,-275.010526315789,66,0,1559,1775,471,4,4,4,4,4,4,4,4,4,4,4,4,4,4,4,4
"32",3668,96.3789473684211,3954,110.336842105263,290.115789473684,3568,255.242105263158,3451,4022,-238.094736842105,305.610526315789,3887,3802,-269.368421052632,67,0,1555,1775,494,4,4,4,4,4,4,4,4,4,4,4,4,4,4,4,4
"33",3673,106.631578947368,3959,110.336842105263,293.705263157895,3577,260.884210526316,3462,4022,-230.915789473684,307.147368421053,3894,3806,-260.652631578947,68,0,1559,1775,501,4,4,4,4,4,4,4,4,4,4,4,4,4,4,4,4
"34",3681,113.305263157895,3960,112.894736842105,293.18947368421,3575,260.884210526316,3465,4020,-226.810526315789,306.126315789474,3895,3805,-260.652631578947,69,0,1559,1775,512,4,4,4,4,4,4,4,4,4,4,4,4,4,4,4,4
"35",3687,114.842105263158,3962,109.821052631579,290.631578947368,3572,259.347368421053,3462,4023,-231.421052631579,303.557894736842,3892,3805,-263.726315789474,70,0,1555,1775,461,4,4,4,4,4,4,4,4,4,4,4,4,4,4,4,4
"36",3683,116.894736842105,3961,108.789473684211,291.136842105263,3578,259.863157894737,3467,4027,-231.936842105263,307.663157894737,3895,3811,-263.221052631579,71,0,1559,1775,437,4,4,4,4,4,4,4,4,4,4,4,4,4,4,4,4
"37",3673,122.021052631579,3962,117,286.526315789474,3587,260.884210526316,3477,4031,-225.778947368421,317.915789473684,3905,3808,-259.115789473684,72,0,1555,1775,450,4,4,4,4,4,4,4,4,4,4,4,4,4,4,4,4
"38",3668,123.557894736842,3964,124.694736842105,270.115789473684,3590,260.884210526316,3481,4034,-224.757894736842,323.557894736842,3910,3801,-254.505263157895,73,0,1559,1775,477,4,4,4,4,4,4,4,4,4,4,4,4,4,4,4,4
"39",3667,121.505263157895,3964,122.642105263158,248.578947368421,3587,256.778947368421,3477,4031,-229.368421052632,318.936842105263,3908,3798,-257.578947368421,74,0,1555,1779,509,4,4,4,4,4,4,4,4,4,4,4,4,4,4,4,4
"40",3666,120.989473684211,3968,119.052631578947,235.757894736842,3587,256.273684210526,3477,4026,-232.452631578947,312.789473684211,3907,3799,-263.726315789474,75,0,1559,1779,497,4,4,4,4,4,4,4,4,4,4,4,4,4,4,4,4
"41",3667,124.073684210526,3969,122.642105263158,224.989473684211,3592,259.347368421053,3481,4030,-224.757894736842,316.894736842105,3912,3798,-253.473684210526,76,0,1555,1779,476,4,4,4,4,4,4,4,4,4,4,4,4,4,4,4,4
"42",3668,123.042105263158,3966,122.126315789474,209.6,3591,254.221052631579,3478,4036,-221.684210526316,320.484210526316,3914,3795,-244.757894736842,77,0,1555,1779,498,4,4,4,4,4,4,4,4,4,4,4,4,4,4,4,4
"43",3669,126.631578947368,3966,123.663157894737,207.042105263158,3592,243.452631578947,3481,4036,-225.778947368421,317.915789473684,3912,3791,-249.368421052632,78,0,1559,1775,509,4,4,4,4,4,4,4,4,4,4,4,4,4,4,4,4
"44",3673,136.894736842105,3974,132.389473684211,219.863157894737,3601,241.4,3491,4036,-220.652631578947,318.936842105263,3921,3794,-252.452631578947,79,0,1555,1779,497,4,4,4,4,4,4,4,4,4,4,4,4,4,4,4,4
"45",3676,143.042105263158,3978,137,226.010526315789,3609,243.452631578947,3497,4037,-211.936842105263,319.452631578947,3928,3799,-244.757894736842,80,0,1559,1779,476,4,4,4,4,4,4,4,4,4,4,4,4,4,4,4,4
"46",3677,149.2,3977,136.484210526316,225.494736842105,3607,242.936842105263,3495,4036,-212.957894736842,312.273684210526,3925,3799,-244.757894736842,81,0,1559,1779,498,4,4,4,4,4,4,4,4,4,4,4,4,4,4,4,4
"47",3679,156.378947368421,3973,137.515789473684,229.084210526316,3605,242.421052631579,3497,4035,-215.010526315789,307.663157894737,3922,3798,-255.526315789474,82,0,1559,1775,509,4,4,4,4,4,4,4,4,4,4,4,4,4,4,4,4
"48",3683,155.863157894737,3969,138.021052631579,226.526315789474,3609,242.936842105263,3506,4031,-213.473684210526,309.2,3923,3799,-257.578947368421,83,0,1555,1779,497,4,4,4,4,4,4,4,4,4,4,4,4,4,4,4,4
"49",3687,162.536842105263,3968,144.178947368421,225.494736842105,3615,244.989473684211,3512,4027,-213.989473684211,306.126315789474,3922,3799,-248.863157894737,84,0,1563,1775,476,4,4,4,4,4,4,4,4,4,4,4,4,4,4,4,4
"50",3695,178.936842105263,3972,154.431578947368,235.242105263158,3620,255.757894736842,3513,4029,-213.473684210526,306.126315789474,3928,3800,-243.221052631579,85,0,1555,1775,498,4,4,4,4,4,4,4,4,4,4,4,4,4,4,4,4
"51",3701,184.073684210526,3978,158.536842105263,238.831578947368,3620,269.6,3517,4034,-211.936842105263,311.757894736842,3939,3807,-245.273684210526,86,0,1559,1779,509,4,4,4,4,4,4,4,4,4,4,4,4,4,4,4,4
"52",3703,186.126315789474,3978,163.157894736842,236.273684210526,3627,274.726315789474,3524,4034,-205.778947368421,311.252631578947,3942,3810,-240.652631578947,87,0,1563,1775,497,4,4,4,4,4,4,4,4,4,4,4,4,4,4,4,4
"53",3707,196.378947368421,3978,170.842105263158,239.347368421053,3635,273.705263157895,3526,4033,-200.136842105263,307.663157894737,3942,3810,-230.915789473684,88,0,1559,1779,476,4,4,4,4,4,4,4,4,4,4,4,4,4,4,4,4
"54",3716,207.147368421053,3979,179.052631578947,242.936842105263,3643,273.18947368421,3532,4032,-198.6,308.168421052632,3951,3811,-228.863157894737,89,0,1559,1779,498,4,4,4,4,4,4,4,4,4,4,4,4,4,4,4,4
"55",3722,216.894736842105,3986,188.789473684211,242.421052631579,3650,273.705263157895,3543,4032,-195.010526315789,308.684210526316,3962,3812,-225.273684210526,90,0,1563,1775,509,4,4,4,4,4,4,4,4,4,4,4,4,4,4,4,4
"56",3720,221.505263157895,3990,186.747368421053,244.473684210526,3648,277.810526315789,3542,4030,-195.526315789474,308.168421052632,3960,3813,-225.778947368421,91,0,1559,1775,497,4,4,4,4,4,4,4,4,4,4,4,4,4,4,4,4
"57",3715,211.757894736842,3990,170.336842105263,243.452631578947,3638,280.368421052632,3535,4029,-203.726315789474,307.663157894737,3946,3815,-237.063157894737,92,0,1555,1779,476,4,4,4,4,4,4,4,4,4,4,4,4,4,4,4,4
"58",3713,204.073684210526,3993,164.178947368421,237.294736842105,3634,276.778947368421,3537,4026,-205.273684210526,306.126315789474,3942,3813,-244.757894736842,93,0,1559,1775,498,4,4,4,4,4,4,4,4,4,4,4,4,4,4,4,4
"59",3714,213.305263157895,4003,168.284210526316,230.115789473684,3642,274.221052631579,3543,4022,-199.115789473684,303.557894736842,3950,3806,-241.684210526316,94,0,1555,1779,509,4,4,4,4,4,4,4,4,4,4,4,4,4,4,4,4
"60",3714,219.968421052632,4009,167.768421052632,226.010526315789,3646,273.18947368421,3544,4020,-199.631578947368,303.557894736842,3950,3804,-241.168421052632,95,0,1559,1779,497,4,4,4,4,4,4,4,4,4,4,4,4,4,4,4,4
"61",3713,216.894736842105,4009,169.821052631579,228.063157894737,3641,276.778947368421,3547,4021,-200.136842105263,303.557894736842,3943,3805,-245.778947368421,96,0,1555,1775,476,4,4,4,4,4,4,4,4,4,4,4,4,4,4,4,4
"62",3713,214.326315789474,4013,169.305263157895,230.631578947368,3635,279.863157894737,3549,4020,-198.094736842105,298.936842105263,3941,3806,-246.294736842105,97,0,1551,1775,498,4,4,4,4,4,4,4,4,4,4,4,4,4,4,4,4
"63",3713,214.842105263158,4014,166.747368421053,228.063157894737,3641,276.273684210526,3551,4017,-199.115789473684,295.347368421053,3948,3803,-244.242105263158,98,0,1551,1775,509,4,4,4,4,4,4,4,4,4,4,4,4,4,4,4,4
"64",3714,215.347368421053,4015,172.389473684211,228.578947368421,3651,276.778947368421,3559,4017,-201.168421052632,295.863157894737,3957,3806,-243.726315789474,99,0,1555,1775,497,4,4,4,4,4,4,4,4,4,4,4,4,4,4,4,4
"65",3723,237.915789473684,4035,197.515789473684,227.042105263158,3660,284.473684210526,3580,4005,-192.957894736842,295.347368421053,3967,3807,-231.936842105263,103,0,1551,1771,497,4,4,4,4,4,4,4,4,4,4,4,4,4,4,4,4
"66",3723,258.431578947368,4036,203.157894736842,228.578947368421,3668,286.526315789474,3591,4007,-185.273684210526,295.863157894737,3967,3806,-228.347368421053,104,0,1555,1775,476,4,4,4,4,4,4,4,4,4,4,4,4,4,4,4,4
"67",3725,297.4,4034,202.126315789474,227.547368421053,3668,283.452631578947,3591,4004,-184.242105263158,294.326315789474,3966,3801,-228.863157894737,105,0,1551,1771,498,4,4,4,4,4,4,4,4,4,4,4,4,4,4,4,4
"68",3727,322.536842105263,4033,210.842105263158,225.494736842105,3669,286.010526315789,3593,3997,-188.863157894737,289.715789473684,3968,3802,-229.884210526316,106,0,1555,1775,509,4,4,4,4,4,4,4,4,4,4,4,4,4,4,4,4
"69",3727,327.663157894737,4035,221.105263157895,229.084210526316,3679,291.136842105263,3606,3999,-185.778947368421,290.736842105263,3977,3802,-221.168421052632,107,0,1555,1771,497,4,4,4,4,4,4,4,4,4,4,4,4,4,4,4,4
"70",3729,331.252631578947,4041,220.073684210526,232.684210526316,3685,291.652631578947,3612,4004,-182.189473684211,297.915789473684,3981,3801,-213.473684210526,108,0,1559,1775,476,4,4,4,4,4,4,4,4,4,4,4,4,4,4,4,4
"71",3732,337.915789473684,4046,224.178947368421,233.189473684211,3688,289.6,3613,4005,-181.684210526316,304.073684210526,3978,3803,-213.473684210526,109,0,1559,1775,498,4,4,4,4,4,4,4,4,4,4,4,4,4,4,4,4
"72",3731,337.4,4050,230.842105263158,233.705263157895,3692,292.168421052632,3612,4009,-180.652631578947,306.631578947368,3977,3805,-212.957894736842,110,0,1555,1775,509,4,4,4,4,4,4,4,4,4,4,4,4,4,4,4,4
"73",3730,335.863157894737,4050,233.926315789474,233.705263157895,3689,293.705263157895,3612,4010,-179.115789473684,307.147368421053,3980,3803,-210.915789473684,111,0,1551,1775,497,4,4,4,4,4,4,4,4,4,4,4,4,4,4,4,4
"74",3735,335.863157894737,4053,233.926315789474,233.705263157895,3689,292.168421052632,3611,4006,-178.6,305.094736842105,3981,3800,-211.421052631579,112,0,1555,1775,476,4,4,4,4,4,4,4,4,4,4,4,4,4,4,4,4
"75",3739,335.347368421053,4052,225.715789473684,236.778947368421,3687,290.631578947368,3608,4004,-186.294736842105,306.631578947368,3976,3801,-216.042105263158,113,0,1555,1775,498,4,4,4,4,4,4,4,4,4,4,4,4,4,4,4,4
"76",3737,333.305263157895,4049,216.484210526316,237.294736842105,3681,287.042105263158,3603,4005,-196.042105263158,315.347368421053,3973,3799,-220.136842105263,114,0,1559,1775,509,4,4,4,4,4,4,4,4,4,4,4,4,4,4,4,4
"77",3741,332.273684210526,4049,222.126315789474,235.757894736842,3681,284.473684210526,3603,4004,-197.063157894737,321.505263157895,3971,3797,-218.094736842105,115,0,1559,1771,497,4,4,4,4,4,4,4,4,4,4,4,4,4,4,4,4
"78",3751,335.863157894737,4057,230.842105263158,238.831578947368,3685,287.042105263158,3603,4004,-194.505263157895,320.989473684211,3974,3799,-215.010526315789,116,0,1555,1775,476,4,4,4,4,4,4,4,4,4,4,4,4,4,4,4,4
"79",3751,333.810526315789,4063,229.305263157895,242.936842105263,3683,291.136842105263,3602,4001,-196.042105263158,319.968421052632,3969,3801,-222.705263157895,117,0,1555,1775,498,4,4,4,4,4,4,4,4,4,4,4,4,4,4,4,4
"80",3741,323.557894736842,4061,226.231578947368,241.4,3679,292.168421052632,3601,3993,-200.136842105263,320.989473684211,3961,3795,-231.421052631579,118,0,1559,1775,509,4,4,4,4,4,4,4,4,4,4,4,4,4,4,4,4
"81",3738,323.557894736842,4061,230.842105263158,239.863157894737,3681,286.526315789474,3601,3989,-198.094736842105,319.452631578947,3966,3795,-224.242105263158,119,0,1559,1771,497,4,4,4,4,4,4,4,4,4,4,4,4,4,4,4,4
"82",3743,335.347368421053,4066,243.157894736842,244.473684210526,3690,288.063157894737,3610,3992,-187.831578947368,319.452631578947,3983,3799,-211.936842105263,120,0,1555,1779,476,4,4,4,4,4,4,4,4,4,4,4,4,4,4,4,4
"83",3745,339.452631578947,4073,250.842105263158,249.6,3699,297.294736842105,3620,3996,-180.652631578947,321.505263157895,3989,3802,-208.347368421053,121,0,1563,1771,498,4,4,4,4,4,4,4,4,4,4,4,4,4,4,4,4
"84",3747,338.431578947368,4078,253.410526315789,251.136842105263,3701,298.831578947368,3621,3995,-181.684210526316,320.484210526316,3985,3800,-208.347368421053,122,0,1555,1771,509,4,4,4,4,4,4,4,4,4,4,4,4,4,4,4,4
"85",3752,338.936842105263,4088,255.978947368421,249.084210526316,3697,294.726315789474,3619,3993,-181.684210526316,318.431578947368,3986,3800,-209.368421052632,123,0,1559,1775,497,4,4,4,4,4,4,4,4,4,4,4,4,4,4,4,4
"86",3754,336.894736842105,4093,253.410526315789,249.6,3700,293.705263157895,3621,3992,-177.063157894737,318.936842105263,3986,3801,-204.757894736842,124,0,1559,1767,476,4,4,4,4,4,4,4,4,4,4,4,4,4,4,4,4
"87",3753,335.347368421053,4095,252.389473684211,254.221052631579,3704,292.684210526316,3622,3990,-172.957894736842,320.484210526316,3982,3801,-198.6,125,0,1555,1775,498,4,4,4,4,4,4,4,4,4,4,4,4,4,4,4,4
"88",3753,337.4,4097,263.157894736842,254.726315789474,3704,290.115789473684,3624,3989,-175.526315789474,321.505263157895,3978,3800,-203.221052631579,126,0,1555,1775,509,4,4,4,4,4,4,4,4,4,4,4,4,4,4,4,4
"89",3753,337.4,4098,264.178947368421,252.168421052632,3699,292.168421052632,3623,3989,-181.684210526316,322.536842105263,3974,3799,-212.452631578947,127,0,1559,1775,497,4,4,4,4,4,4,4,4,4,4,4,4,4,4,4,4
"90",3752,334.326315789474,4099,252.894736842105,254.221052631579,3696,294.726315789474,3617,3989,-183.726315789474,320.989473684211,3971,3799,-214.505263157895,128,0,1559,1771,476,4,4,4,4,4,4,4,4,4,4,4,4,4,4,4,4
"91",3753,331.252631578947,4100,253.410526315789,259.347368421053,3698,293.705263157895,3617,3987,-182.189473684211,322.021052631579,3971,3798,-211.421052631579,0,0,1555,1775,432,4,4,4,4,4,4,4,4,4,4,4,4,4,4,4,4
"92",3749,325.094736842105,4101,257,259.863157894737,3696,291.136842105263,3613,3988,-182.705263157895,325.610526315789,3970,3797,-214.505263157895,1,0,1559,1775,475,4,4,4,4,4,4,4,4,4,4,4,4,4,4,4,4
"93",3740,318.936842105263,4105,250.842105263158,256.273684210526,3690,287.547368421053,3605,3989,-183.726315789474,327.147368421053,3965,3794,-223.221052631579,2,0,1555,1775,471,4,4,4,4,4,4,4,4,4,4,4,4,4,4,4,4
"94",3738,317.915789473684,4112,246.747368421053,258.315789473684,3689,287.547368421053,3602,3983,-183.726315789474,322.021052631579,3964,3791,-229.368421052632,3,0,1559,1775,494,4,4,4,4,4,4,4,4,4,4,4,4,4,4,4,4
"95",3748,326.126315789474,4099,255.463157894737,266.526315789474,3693,291.136842105263,3607,3974,-183.726315789474,320.484210526316,3968,3789,-222.705263157895,4,0,1555,1775,501,4,4,4,4,4,4,4,4,4,4,4,4,4,4,4,4
"96",3755,335.863157894737,4087,264.178947368421,272.684210526316,3700,297.810526315789,3616,3985,-178.094736842105,327.663157894737,3973,3795,-211.421052631579,5,0,1559,1775,512,4,4,4,4,4,4,4,4,4,4,4,4,4,4,4,4
"97",3748,343.042105263158,4094,265.2,272.168421052632,3707,295.242105263158,3623,3992,-168.863157894737,331.252631578947,3981,3801,-207.831578947368,6,0,1555,1775,461,4,4,4,4,4,4,4,4,4,4,4,4,4,4,4,4
"98",3744,344.578947368421,4108,267.768421052632,267.042105263158,3708,289.6,3619,3977,-165.273684210526,324.073684210526,3985,3796,-207.831578947368,7,0,1559,1775,437,4,4,4,4,4,4,4,4,4,4,4,4,4,4,4,4
"99",3752,-343.221052631579,4112,274.431578947368,264.989473684211,3708,299.863157894737,3618,3965,-166.294736842105,317.4,3981,3792,-208.347368421053,8,0,1555,1771,450,4,4,4,4,4,4,4,4,4,4,4,4,4,4,4,4
"100",3758,-341.684210526316,4113,275.978947368421,268.578947368421,3705,304.473684210526,3620,3966,-169.368421052632,319.968421052632,3979,3790,-209.368421052632,9,0,1555,1779,478,4,4,4,4,4,4,4,4,4,4,4,4,4,4,4,4
"101",3750,338.936842105263,4115,263.663157894737,268.063157894737,3699,288.063157894737,3609,3963,-178.6,320.989473684211,3976,3785,-212.452631578947,10,0,1559,1775,509,4,4,4,4,4,4,4,4,4,4,4,4,4,4,4,4
"102",3745,336.378947368421,4114,259.052631578947,264.989473684211,3697,278.315789473684,3603,3963,-183.221052631579,319.968421052632,3974,3783,-213.989473684211,11,0,1555,1775,497,4,4,4,4,4,4,4,4,4,4,4,4,4,4,4,4
"103",3750,343.042105263158,4124,270.842105263158,269.6,3701,289.6,3614,3964,-172.957894736842,320.989473684211,3978,3789,-212.452631578947,12,0,1559,1775,476,4,4,4,4,4,4,4,4,4,4,4,4,4,4,4,4
"104",3754,-342.705263157895,4136,281.105263157895,275.242105263158,3704,301.4,3621,3962,-165.273684210526,322.021052631579,3985,3789,-208.863157894737,13,0,1555,1775,498,4,4,4,4,4,4,4,4,4,4,4,4,4,4,4,4
"105",3752,-344.757894736842,4142,279.052631578947,273.18947368421,3706,303.957894736842,3618,3966,-166.810526315789,319.452631578947,3986,3788,-205.273684210526,14,0,1559,1779,509,4,4,4,4,4,4,4,4,4,4,4,4,4,4,4,4
"106",3751,-340.652631578947,4141,279.052631578947,273.705263157895,3711,303.957894736842,3621,3967,-159.631578947368,320.484210526316,3987,3789,-199.631578947368,15,0,1555,1775,497,4,4,4,4,4,4,4,4,4,4,4,4,4,4,4,4
"107",3753,-336.042105263158,4145,289.305263157895,277.294736842105,3719,303.957894736842,3631,3964,-147.831578947368,322.021052631579,3997,3789,-194.505263157895,16,0,1555,1779,0,4,4,4,4,4,4,4,4,4,4,4,4,4,4,4,4
"108",3753,-336.547368421053,4154,295.978947368421,277.810526315789,3725,304.473684210526,3635,3963,-146.810526315789,320.989473684211,4003,3786,-190.915789473684,17,0,1559,1775,0,4,4,4,4,4,4,4,4,4,4,4,4,4,4,4,4
"109",3754,-333.989473684211,4162,295.463157894737,283.957894736842,3727,306.526315789474,3636,3967,-149.368421052632,323.042105263158,4005,3790,-188.347368421053,18,0,1555,1775,0,4,4,4,4,4,4,4,4,4,4,4,4,4,4,4,4
"110",3758,-330.915789473684,4167,295.463157894737,290.115789473684,3726,307.547368421053,3635,3969,-146.294736842105,324.578947368421,4004,3795,-190.4,19,0,1555,1779,0,4,4,4,4,4,4,4,4,4,4,4,4,4,4,4,4
"111",3761,-330.915789473684,4170,296.484210526316,289.084210526316,3724,307.042105263158,3634,3964,-147.831578947368,322.021052631579,3999,3791,-195.010526315789,20,0,1559,1775,0,4,4,4,4,4,4,4,4,4,4,4,4,4,4,4,4
"112",3764,-335.526315789474,4174,297,287.547368421053,3721,303.957894736842,3634,3958,-151.421052631579,319.968421052632,3995,3787,-197.063157894737,21,0,1555,1779,0,4,4,4,4,4,4,4,4,4,4,4,4,4,4,4,4
"113",3766,-336.547368421053,4175,296.484210526316,289.6,3724,305.494736842105,3636,3959,-143.726315789474,321.505263157895,3999,3789,-195.526315789474,22,0,1559,1779,0,4,4,4,4,4,4,4,4,4,4,4,4,4,4,4,4
"114",3762,-336.042105263158,4177,292.894736842105,289.084210526316,3728,307.042105263158,3638,3962,-137.578947368421,322.021052631579,3999,3790,-195.526315789474,23,0,1559,1775,0,4,4,4,4,4,4,4,4,4,4,4,4,4,4,4,4
"115",3762,-334.505263157895,4182,295.463157894737,291.652631578947,3724,306.526315789474,3636,3957,-140.652631578947,322.021052631579,3991,3789,-197.578947368421,24,0,1555,1779,0,4,4,4,4,4,4,4,4,4,4,4,4,4,4,4,4
"116",3772,-332.452631578947,4195,303.663157894737,299.863157894737,3721,307.547368421053,3636,3955,-141.168421052632,319.968421052632,3988,3793,-199.631578947368,25,0,1555,1779,0,4,4,4,4,4,4,4,4,4,4,4,4,4,4,4,4
"117",3779,-335.010526315789,4206,308.284210526316,306.526315789474,3725,308.578947368421,3638,3958,-135.010526315789,320.484210526316,3994,3796,-196.547368421053,26,0,1559,1775,0,4,4,4,4,4,4,4,4,4,4,4,4,4,4,4,4
"118",3775,-338.6,4213,307.252631578947,303.957894736842,3726,303.957894736842,3638,3960,-130.4,324.578947368421,4003,3792,-192.957894736842,27,0,1555,1775,0,4,4,4,4,4,4,4,4,4,4,4,4,4,4,4,4
"119",3769,-341.168421052632,4216,299.568421052632,292.684210526316,3718,296.778947368421,3634,3959,-134.505263157895,324.073684210526,3999,3788,-199.631578947368,28,0,1559,1779,0,4,4,4,4,4,4,4,4,4,4,4,4,4,4,4,4
"120",3768,341.505263157895,4217,293.410526315789,291.652631578947,3710,296.273684210526,3630,3955,-147.315789473684,319.968421052632,3988,3786,-212.957894736842,29,0,1559,1771,0,4,4,4,4,4,4,4,4,4,4,4,4,4,4,4,4
"121",3769,338.936842105263,4222,301.105263157895,302.421052631579,3706,301.905263157895,3630,3955,-153.989473684211,319.452631578947,3985,3785,-221.684210526316,30,0,1555,1779,0,4,4,4,4,4,4,4,4,4,4,4,4,4,4,4,4
"122",3770,-342.18947368421,4225,311.357894736842,305.494736842105,3709,303.957894736842,3633,3958,-142.189473684211,320.989473684211,3990,3785,-222.189473684211,31,0,1559,1775,0,4,4,4,4,4,4,4,4,4,4,4,4,4,4,4,4
"123",3773,-339.115789473684,4226,310.842105263158,299.863157894737,3714,301.905263157895,3636,3958,-135.010526315789,320.484210526316,3990,3787,-222.189473684211,32,0,1555,1775,0,4,4,4,4,4,4,4,4,4,4,4,4,4,4,4,4
"124",3775,-341.684210526316,4223,310.842105263158,302.421052631579,3711,301.905263157895,3636,3958,-142.189473684211,321.505263157895,3990,3784,-224.242105263158,33,0,1559,1775,0,4,4,4,4,4,4,4,4,4,4,4,4,4,4,4,4
"125",3770,341.505263157895,4225,305.715789473684,301.4,3706,303.452631578947,3635,3955,-148.347368421053,319.452631578947,3988,3781,-231.421052631579,34,0,1555,1779,0,4,4,4,4,4,4,4,4,4,4,4,4,4,4,4,4
"126",3772,333.810526315789,4227,296.484210526316,294.221052631579,3707,302.421052631579,3634,3949,-150.915789473684,313.305263157895,3978,3779,-241.684210526316,35,0,1559,1775,0,4,4,4,4,4,4,4,4,4,4,4,4,4,4,4,4
"127",3783,337.4,4231,302.642105263158,298.315789473684,3708,303.452631578947,3635,3948,-151.421052631579,314.842105263158,3978,3781,-245.273684210526,36,0,1555,1775,0,4,4,4,4,4,4,4,4,4,4,4,4,4,4,4,4
"128",3787,-344.242105263158,4242,315.978947368421,303.957894736842,3709,303.957894736842,3642,3951,-150.915789473684,320.989473684211,3988,3779,-241.684210526316,37,0,1555,1783,0,4,4,4,4,4,4,4,4,4,4,4,4,4,4,4,4
"129",3786,339.452631578947,4257,311.873684210526,302.421052631579,3707,298.315789473684,3639,3946,-158.6,319.968421052632,3984,3774,-245.273684210526,38,0,1559,1775,0,4,4,4,4,4,4,4,4,4,4,4,4,4,4,4,4
"130",3781,327.147368421053,4266,300.073684210526,301.4,3698,292.684210526316,3631,3942,-166.294736842105,316.894736842105,3973,3773,-258.094736842105,39,0,1555,1775,0,4,4,4,4,4,4,4,4,4,4,4,4,4,4,4,4
"131",3777,325.094736842105,4265,301.105263157895,302.936842105263,3698,293.705263157895,3631,3953,-161.684210526316,320.989473684211,3974,3774,-260.652631578947,40,0,1559,1775,0,4,4,4,4,4,4,4,4,4,4,4,4,4,4,4,4
"132",3776,327.663157894737,4270,306.231578947368,300.368421052632,3706,295.757894736842,3637,3957,-158.6,320.989473684211,3977,3771,-258.094736842105,41,0,1555,1779,0,4,4,4,4,4,4,4,4,4,4,4,4,4,4,4,4
"133",3776,329.715789473684,4274,310.842105263158,299.863157894737,3709,295.242105263158,3638,3948,-169.884210526316,317.915789473684,3975,3768,-259.115789473684,42,0,1559,1775,0,4,4,4,4,4,4,4,4,4,4,4,4,4,4,4,4
"134",3775,332.789473684211,4262,315.978947368421,302.421052631579,3707,295.757894736842,3636,3948,-197.063157894737,318.936842105263,3974,3772,-264.757894736842,43,0,1551,1775,0,4,4,4,4,4,4,4,4,4,4,4,4,4,4,4,4
"135",3779,334.842105263158,4244,322.126315789474,302.936842105263,3709,296.778947368421,3641,3954,-226.810526315789,319.968421052632,3973,3773,-269.884210526316,44,0,1559,1775,0,4,4,4,4,4,4,4,4,4,4,4,4,4,4,4,4
"136",3782,330.736842105263,4245,325.715789473684,303.957894736842,3712,298.831578947368,3648,3956,-237.578947368421,320.484210526316,3975,3772,-269.884210526316,45,0,1559,1775,0,4,4,4,4,4,4,4,4,4,4,4,4,4,4,4,4
"137",3777,331.252631578947,4250,328.284210526316,303.452631578947,3713,299.863157894737,3650,3955,-232.452631578947,320.989473684211,3977,3773,-269.368421052632,46,0,1559,1775,0,4,4,4,4,4,4,4,4,4,4,4,4,4,4,4,4
"138",3774,334.842105263158,4249,330.842105263158,301.905263157895,3714,300.884210526316,3649,3954,-231.936842105263,320.989473684211,3973,3771,-272.452631578947,47,0,1559,1771,0,4,4,4,4,4,4,4,4,4,4,4,4,4,4,4,4
"139",3773,329.2,4248,328.284210526316,304.473684210526,3716,303.957894736842,3649,3952,-230.915789473684,319.452631578947,3977,3769,-273.473684210526,48,0,1555,1775,0,4,4,4,4,4,4,4,4,4,4,4,4,4,4,4,4
"140",3771,317.4,4248,322.126315789474,302.421052631579,3711,300.368421052632,3646,3953,-227.831578947368,319.452631578947,3986,3769,-273.989473684211,49,0,1559,1767,0,4,4,4,4,4,4,4,4,4,4,4,4,4,4,4,4
"141",3765,308.168421052632,4250,313.410526315789,291.652631578947,3701,290.115789473684,3636,3954,-235.010526315789,319.452631578947,3981,3767,-283.221052631579,50,0,1555,1771,0,4,4,4,4,4,4,4,4,4,4,4,4,4,4,4,4
"142",3762,303.042105263158,4258,309.821052631579,287.547368421053,3699,287.042105263158,3626,3955,-243.221052631579,319.968421052632,3970,3761,-293.989473684211,51,0,1559,1771,0,4,4,4,4,4,4,4,4,4,4,4,4,4,4,4,4
"143",3766,295.863157894737,4263,310.336842105263,289.084210526316,3698,289.6,3620,3955,-240.136842105263,319.452631578947,3969,3756,-300.652631578947,52,0,1555,1771,0,4,4,4,4,4,4,4,4,4,4,4,4,4,4,4,4
"144",3767,292.789473684211,4265,308.284210526316,284.989473684211,3692,289.084210526316,3618,3952,-238.094736842105,319.968421052632,3972,3757,-305.778947368421,53,0,1559,1775,0,4,4,4,4,4,4,4,4,4,4,4,4,4,4,4,4
"145",3765,290.221052631579,4277,305.715789473684,298.315789473684,3690,288.063157894737,3618,3953,-249.884210526316,323.557894736842,3969,3762,-309.884210526316,54,0,1559,1775,0,4,4,4,4,4,4,4,4,4,4,4,4,4,4,4,4
"146",3773,292.789473684211,4287,309.821052631579,309.6,3693,290.115789473684,3617,3956,-245.778947368421,329.2,3968,3762,-309.368421052632,55,0,1559,1775,0,4,4,4,4,4,4,4,4,4,4,4,4,4,4,4,4
"147",3786,302.021052631579,4293,320.073684210526,286.010526315789,3700,290.631578947368,3621,3952,-240.652631578947,329.715789473684,3971,3755,-303.726315789474,56,0,1559,1771,0,4,4,4,4,4,4,4,4,4,4,4,4,4,4,4,4
"148",3784,297.4,4299,321.105263157895,309.6,3702,288.578947368421,3618,3944,-307.315789473684,322.021052631579,3964,3756,-315.010526315789,57,0,1555,1771,0,4,4,4,4,4,4,4,4,4,4,4,4,4,4,4,4
"149",3777,288.684210526316,4303,319.052631578947,290.115789473684,3695,291.652631578947,3613,3941,294.326315789474,319.968421052632,3948,3755,-332.957894736842,58,0,1555,1779,0,4,4,4,4,4,4,4,4,4,4,4,4,4,4,4,4
"150",3778,317.4,4302,-337.978947368421,32.1684210526316,3718,300.884210526316,3636,3945,299.968421052632,334.842105263158,3964,3726,-311.421052631579,59,0,1563,1771,0,4,4,4,4,4,4,4,4,4,4,4,4,4,4,4,4
"151",3779,-324.757894736842,4306,-286.18947368421,-240.136842105263,3775,306.010526315789,3681,3953,-322.705263157895,-340.136842105263,4014,3693,-262.18947368421,60,0,1555,1775,0,4,4,4,4,4,4,4,4,4,4,4,4,4,4,4,4
"152",3779,-312.452631578947,4310,-268.242105263158,-258.094736842105,3777,300.368421052632,3698,3957,-303.221052631579,-339.115789473684,4037,3687,-246.294736842105,61,0,1559,1775,0,4,4,4,4,4,4,4,4,4,4,4,4,4,4,4,4
"153",3782,-325.273684210526,4310,-275.926315789474,-203.221052631579,3699,295.757894736842,3686,3957,-323.726315789474,-341.684210526316,4020,3689,-265.273684210526,62,0,1559,1771,0,4,4,4,4,4,4,4,4,4,4,4,4,4,4,4,4
"154",3784,-332.452631578947,4310,-277.463157894737,-229.368421052632,3645,299.347368421053,3677,3958,-327.315789473684,-339.115789473684,4004,3686,-280.136842105263,63,0,1555,1775,0,4,4,4,4,4,4,4,4,4,4,4,4,4,4,4,4
"155",3784,-335.010526315789,4313,-270.284210526316,-225.778947368421,3658,302.936842105263,3681,3958,-314.505263157895,-336.547368421053,4010,3688,-278.094736842105,64,0,1555,1775,435,4,4,4,4,4,4,4,4,4,4,4,4,4,4,4,4
"156",3786,-335.526315789474,4317,-262.084210526316,-195.010526315789,3671,302.421052631579,3684,3959,-302.705263157895,-337.063157894737,4018,3692,-272.957894736842,65,0,1559,1771,475,4,4,4,4,4,4,4,4,4,4,4,4,4,4,4,4
"157",3787,-339.115789473684,4311,-259.515789473684,-195.010526315789,3663,303.957894736842,3683,3961,-296.547368421053,-337.063157894737,4015,3691,-275.010526315789,66,0,1555,1771,471,4,4,4,4,4,4,4,4,4,4,4,4,4,4,4,4
"158",3783,339.452631578947,4298,-269.263157894737,-195.526315789474,3663,303.957894736842,3678,3957,-297.063157894737,-338.094736842105,4009,3693,-279.631578947368,67,0,1555,1775,497,4,4,4,4,4,4,4,4,4,4,4,4,4,4,4,4
"159",3777,333.810526315789,4291,-272.336842105263,-208.863157894737,3669,299.347368421053,3677,3955,-297.578947368421,-340.652631578947,4008,3689,-279.115789473684,68,0,1559,1767,503,4,4,4,4,4,4,4,4,4,4,4,4,4,4,4,4
"160",3776,335.863157894737,4295,-264.652631578947,-229.884210526316,3670,296.778947368421,3682,3957,-295.010526315789,-341.684210526316,4007,3679,-279.115789473684,69,0,1555,1771,512,4,4,4,4,4,4,4,4,4,4,4,4,4,4,4,4
"161",3779,339.452631578947,4301,-259.010526315789,-226.294736842105,3674,300.368421052632,3686,3956,-291.421052631579,-340.652631578947,4011,3683,-279.115789473684,70,0,1559,1771,461,4,4,4,4,4,4,4,4,4,4,4,4,4,4,4,4
"162",3788,-342.705263157895,4303,-250.8,-206.810526315789,3685,309.6,3694,3957,-285.273684210526,-340.652631578947,4023,3692,-270.4,71,0,1559,1767,437,4,4,4,4,4,4,4,4,4,4,4,4,4,4,4,4
"163",3797,-337.578947368421,4303,-242.6,-197.578947368421,3690,319.863157894737,3702,3964,-275.010526315789,-338.094736842105,4031,3692,-260.652631578947,72,0,1559,1767,450,4,4,4,4,4,4,4,4,4,4,4,4,4,4,4,4
"164",3799,-339.115789473684,4310,-242.084210526316,-198.094736842105,3685,321.905263157895,3700,3967,-270.915789473684,-336.042105263158,4030,3689,-259.115789473684,73,0,1555,1771,478,4,4,4,4,4,4,4,4,4,4,4,4,4,4,4,4
"165",3802,-342.705263157895,4289,-246.694736842105,-188.347368421053,3681,321.4,3690,3969,-276.547368421053,-339.115789473684,4023,3693,-264.757894736842,74,0,1559,1767,509,4,4,4,4,4,4,4,4,4,4,4,4,4,4,4,4
"166",3814,-340.136842105263,4214,-240.547368421053,-171.936842105263,3689,327.042105263158,3693,3973,-267.831578947368,-332.957894736842,4026,3699,-263.221052631579,75,0,1559,1767,497,4,4,4,4,4,4,4,4,4,4,4,4,4,4,4,4
"167",3821,-335.010526315789,4177,-227.726315789474,-161.168421052632,3702,333.18947368421,3702,3977,-256.042105263158,-323.221052631579,4036,3701,-257.063157894737,76,0,1559,1771,476,4,4,4,4,4,4,4,4,4,4,4,4,4,4,4,4
"168",3818,-337.063157894737,4225,-229.263157894737,-154.505263157895,3697,334.726315789474,3696,3972,-264.757894736842,-328.347368421053,4031,3700,-263.221052631579,77,0,1559,1767,498,4,4,4,4,4,4,4,4,4,4,4,4,4,4,4,4
"169",3817,340.484210526316,4283,-244.136842105263,-150.915789473684,3682,335.242105263158,3679,3963,-278.6,-339.115789473684,4012,3698,-278.094736842105,78,0,1555,1771,509,4,4,4,4,4,4,4,4,4,4,4,4,4,4,4,4
"170",3814,330.221052631579,4297,-248.242105263158,-151.421052631579,3683,333.18947368421,3676,3958,-276.547368421053,-339.631578947368,4004,3696,-279.115789473684,79,0,1559,1771,497,4,4,4,4,4,4,4,4,4,4,4,4,4,4,4,4
"171",3813,327.663157894737,4305,-242.084210526316,-148.347368421053,3692,337.294736842105,3685,3960,-270.915789473684,-336.547368421053,4008,3697,-272.957894736842,80,0,1555,1771,476,4,4,4,4,4,4,4,4,4,4,4,4,4,4,4,4
"172",3812,324.578947368421,4311,-248.747368421053,-140.652631578947,3685,-329.989473684211,3678,3960,-276.547368421053,-338.6,4005,3697,-283.221052631579,81,0,1559,1767,498,4,4,4,4,4,4,4,4,4,4,4,4,4,4,4,4
"173",3806,317.4,4307,-258.494736842105,-136.042105263158,3681,-300.768421052632,3669,3956,-280.136842105263,-341.168421052632,3997,3693,-293.473684210526,82,0,1559,1771,509,4,4,4,4,4,4,4,4,4,4,4,4,4,4,4,4
"174",3805,306.631578947368,4308,-259.515789473684,-129.368421052632,3683,-288.968421052632,3663,3957,-279.115789473684,-338.6,3993,3693,-290.915789473684,83,0,1559,1771,497,4,4,4,4,4,4,4,4,4,4,4,4,4,4,4,4
"175",3808,297.4,4307,-258.494736842105,-117.063157894737,3676,-292.042105263158,3657,3960,-277.578947368421,-332.452631578947,3992,3698,-291.421052631579,84,0,1555,1771,476,4,4,4,4,4,4,4,4,4,4,4,4,4,4,4,4
"176",3806,287.663157894737,4309,-261.568421052632,-111.421052631579,3670,-293.073684210526,3657,3958,-276.547368421053,-333.473684210526,3992,3696,-296.042105263158,85,0,1559,1771,498,4,4,4,4,4,4,4,4,4,4,4,4,4,4,4,4
"177",3806,283.557894736842,4306,-258.494736842105,-109.368421052632,3671,-291.536842105263,3663,3957,-275.526315789474,-337.063157894737,3992,3687,-293.989473684211,86,0,1559,1771,509,4,4,4,4,4,4,4,4,4,4,4,4,4,4,4,4
"178",3810,284.073684210526,4303,-249.263157894737,-99.6315789473684,3671,-291.536842105263,3661,3957,-274.505263157895,-335.526315789474,3991,3687,-295.010526315789,87,0,1555,1775,497,4,4,4,4,4,4,4,4,4,4,4,4,4,4,4,4
"179",3806,283.557894736842,4298,-247.726315789474,-88.8631578947368,3667,-292.557894736842,3652,3957,-275.010526315789,-330.915789473684,3987,3690,-303.726315789474,88,0,1559,1771,476,4,4,4,4,4,4,4,4,4,4,4,4,4,4,4,4
"180",3804,279.452631578947,4296,-257.463157894737,-85.2736842105263,3666,-292.042105263158,3651,3955,-276.042105263158,-327.315789473684,3988,3690,-308.347368421053,89,0,1555,1775,498,4,4,4,4,4,4,4,4,4,4,4,4,4,4,4,4
"181",3811,276.894736842105,4299,-255.926315789474,-77.5789473684211,3669,-289.989473684211,3650,3955,-268.347368421053,-324.757894736842,3992,3693,-302.18947368421,90,0,1559,1771,509,4,4,4,4,4,4,4,4,4,4,4,4,4,4,4,4
"182",3814,275.347368421053,4304,-248.242105263158,-67.3157894736842,3675,-289.989473684211,3650,3955,-260.136842105263,-324.242105263158,3996,3697,-295.010526315789,91,0,1555,1771,497,4,4,4,4,4,4,4,4,4,4,4,4,4,4,4,4
"183",3810,269.715789473684,4308,-255.926315789474,-62.7052631578947,3678,-290.505263157895,3653,3955,-259.115789473684,-325.778947368421,3996,3697,-293.473684210526,92,0,1559,1771,476,4,4,4,4,4,4,4,4,4,4,4,4,4,4,4,4
"184",3812,265.610526315789,4308,-257.978947368421,-55.0105263157895,3679,-282.305263157895,3653,3955,-255.526315789474,-320.652631578947,4000,3696,-292.957894736842,93,0,1555,1775,498,4,4,4,4,4,4,4,4,4,4,4,4,4,4,4,4
"185",3818,264.073684210526,4312,-245.673684210526,-47.3157894736842,3685,-275.631578947368,3654,3958,-250.915789473684,-309.884210526316,4005,3698,-289.884210526316,94,0,1555,1775,509,4,4,4,4,4,4,4,4,4,4,4,4,4,4,4,4
"186",3817,260.989473684211,4303,-245.673684210526,-50.4,3685,-284.863157894737,3653,3958,-255.010526315789,-306.294736842105,3997,3691,-291.421052631579,95,0,1559,1775,497,4,4,4,4,4,4,4,4,4,4,4,4,4,4,4,4
"187",3808,252.789473684211,4291,-253.873684210526,-54.5052631578947,3672,-291.021052631579,3643,3956,-261.684210526316,-310.4,3988,3687,-296.042105263158,96,0,1555,1771,476,4,4,4,4,4,4,4,4,4,4,4,4,4,4,4,4
"188",3807,251.757894736842,4296,-250.8,-51.4210526315789,3670,-287.431578947368,3637,3959,-255.526315789474,-303.221052631579,3993,3690,-295.010526315789,97,0,1551,1775,498,4,4,4,4,4,4,4,4,4,4,4,4,4,4,4,4
"189",3815,256.378947368421,4306,-243.105263157895,-49.3684210526316,3680,-286.915789473684,3641,3968,-245.273684210526,-292.957894736842,4003,3692,-290.915789473684,98,0,1559,1767,509,4,4,4,4,4,4,4,4,4,4,4,4,4,4,4,4
"190",3816,254.842105263158,4302,-247.726315789474,-49.8842105263158,3687,-290.505263157895,3640,3971,-241.684210526316,-289.884210526316,4007,3689,-288.863157894737,99,0,1551,1775,497,4,4,4,4,4,4,4,4,4,4,4,4,4,4,4,4
"191",3807,246.126315789474,4304,-257.978947368421,-47.3157894736842,3684,-289.484210526316,3636,3971,-243.726315789474,-290.4,4006,3686,-289.368421052632,100,0,1555,1775,476,4,4,4,4,4,4,4,4,4,4,4,4,4,4,4,4
"192",3800,235.863157894737,4314,-261.568421052632,-47.8315789473684,3675,-289.484210526316,3634,3971,-246.810526315789,-289.884210526316,3997,3687,-293.989473684211,101,0,1555,1771,498,4,4,4,4,4,4,4,4,4,4,4,4,4,4,4,4
"193",3805,236.378947368421,4315,-250.8,-47.8315789473684,3674,-291.021052631579,3633,3973,-246.294736842105,-283.726315789474,3993,3689,-296.042105263158,102,0,1555,1771,509,4,4,4,4,4,4,4,4,4,4,4,4,4,4,4,4
"194",3814,241.505263157895,4318,-237.978947368421,-38.6,3681,-288.452631578947,3632,3972,-244.757894736842,-277.578947368421,3996,3688,-293.989473684211,103,0,1555,1775,497,4,4,4,4,4,4,4,4,4,4,4,4,4,4,4,4
"195",3809,241.505263157895,4322,-232.336842105263,-38.6,3684,-289.484210526316,3635,3970,-243.726315789474,-277.578947368421,3997,3683,-293.989473684211,104,0,1555,1771,476,4,4,4,4,4,4,4,4,4,4,4,4,4,4,4,4
"196",3803,238.431578947368,4323,-233.368421052632,-44.2421052631579,3681,-293.578947368421,3633,3972,-244.242105263158,-278.094736842105,3998,3680,-295.010526315789,105,0,1551,1771,498,4,4,4,4,4,4,4,4,4,4,4,4,4,4,4,4
"197",3809,243.042105263158,4324,-233.368421052632,-33.9894736842105,3687,-295.631578947368,3637,3973,-239.631578947368,-275.526315789474,4002,3683,-291.936842105263,106,0,1555,1775,509,4,4,4,4,4,4,4,4,4,4,4,4,4,4,4,4
"198",3812,258.431578947368,4330,-217.463157894737,-55.0105263157895,3706,-293.578947368421,3654,3975,-223.726315789474,-276.042105263158,4014,3682,-278.094736842105,107,0,1555,1767,497,4,4,4,4,4,4,4,4,4,4,4,4,4,4,4,4
"199",3809,277.4,4334,-190.8,-129.884210526316,3731,-293.073684210526,3678,3981,-204.242105263158,-271.421052631579,4036,3671,-256.042105263158,108,0,1551,1771,476,4,4,4,4,4,4,4,4,4,4,4,4,4,4,4,4
"200",3813,288.684210526316,4340,-179.010526315789,-178.6,3745,-291.536842105263,3694,3982,-196.547368421053,-261.684210526316,4050,3663,-243.221052631579,109,0,1555,1775,498,4,4,4,4,4,4,4,4,4,4,4,4,4,4,4,4
"201",3819,292.789473684211,4350,-174.905263157895,-160.652631578947,3742,-286.915789473684,3692,3984,-197.063157894737,-259.115789473684,4048,3673,-242.189473684211,110,0,1555,1771,509,4,4,4,4,4,4,4,4,4,4,4,4,4,4,4,4
"202",3824,297.4,4357,-166.189473684211,-143.221052631579,3742,-285.378947368421,3687,3988,-194.505263157895,-260.652631578947,4047,3677,-240.652631578947,111,0,1551,1771,497,4,4,4,4,4,4,4,4,4,4,4,4,4,4,4,4
"203",3826,295.863157894737,4359,-161.063157894737,-147.315789473684,3747,-288.452631578947,3692,3984,-193.473684210526,-263.221052631579,4049,3669,-238.6,112,0,1551,1771,476,4,4,4,4,4,4,4,4,4,4,4,4,4,4,4,4
"204",3818,289.2,4354,-168.242105263158,-139.115789473684,3746,-288.452631578947,3694,3976,-196.042105263158,-270.4,4049,3667,-241.168421052632,113,0,1555,1771,498,4,4,4,4,4,4,4,4,4,4,4,4,4,4,4,4
"205",3816,284.073684210526,4352,-180.031578947368,-125.778947368421,3741,-291.536842105263,3684,3975,-196.042105263158,-275.010526315789,4045,3672,-244.757894736842,114,0,1551,1767,509,4,4,4,4,4,4,4,4,4,4,4,4,4,4,4,4
"206",3820,282.536842105263,4352,-183.621052631579,-118.6,3742,-301.789473684211,3678,3976,-196.042105263158,-270.915789473684,4038,3673,-244.757894736842,115,0,1551,1775,497,4,4,4,4,4,4,4,4,4,4,4,4,4,4,4,4
"207",3818,280.484210526316,4354,-182.6,-111.421052631579,3741,-308.452631578947,3677,3973,-198.094736842105,-270.4,4036,3676,-249.368421052632,116,0,1555,1767,476,4,4,4,4,4,4,4,4,4,4,4,4,4,4,4,4
"208",3816,277.915789473684,4357,-182.084210526316,-100.652631578947,3740,-307.947368421053,3672,3972,-199.115789473684,-269.368421052632,4035,3682,-258.094736842105,117,0,1555,1771,498,4,4,4,4,4,4,4,4,4,4,4,4,4,4,4,4
"209",3816,269.715789473684,4361,-184.136842105263,-93.4736842105263,3735,-308.968421052632,3667,3975,-200.136842105263,-262.705263157895,4031,3683,-262.705263157895,118,0,1555,1771,509,4,4,4,4,4,4,4,4,4,4,4,4,4,4,4,4
"210",3814,262.536842105263,4354,-185.673684210526,-89.8842105263158,3724,-312.042105263158,3666,3976,-200.136842105263,-259.115789473684,4026,3682,-262.705263157895,119,0,1551,1771,497,4,4,4,4,4,4,4,4,4,4,4,4,4,4,4,4
"211",3814,266.126315789474,4354,-184.652631578947,-82.1894736842105,3722,-309.989473684211,3667,3975,-198.6,-261.168421052632,4026,3682,-262.705263157895,120,0,1555,1767,476,4,4,4,4,4,4,4,4,4,4,4,4,4,4,4,4
"212",3810,267.147368421053,4358,-185.673684210526,-70.4,3728,-307.947368421053,3670,3974,-197.063157894737,-263.221052631579,4032,3681,-260.652631578947,121,0,1551,1771,498,4,4,4,4,4,4,4,4,4,4,4,4,4,4,4,4
"213",3806,258.431578947368,4334,-193.873684210526,-63.7263157894737,3726,-308.968421052632,3670,3974,-197.578947368421,-262.705263157895,4029,3683,-262.705263157895,122,0,1559,1771,509,4,4,4,4,4,4,4,4,4,4,4,4,4,4,4,4
"214",3808,249.2,4303,-199.010526315789,-63.2210526315789,3717,-309.989473684211,3663,3972,-202.189473684211,-260.652631578947,4020,3683,-272.452631578947,123,0,1555,1771,497,4,4,4,4,4,4,4,4,4,4,4,4,4,4,4,4
"215",3813,257.915789473684,4302,-184.136842105263,-51.4210526315789,3727,-308.452631578947,3670,3973,-199.631578947368,-257.063157894737,4028,3681,-267.315789473684,124,0,1555,1775,476,4,4,4,4,4,4,4,4,4,4,4,4,4,4,4,4
"216",3824,273.810526315789,4321,-166.694736842105,-34.5052631578947,3743,-305.378947368421,3688,3976,-190.4,-258.6,4042,3685,-253.473684210526,125,0,1559,1771,498,4,4,4,4,4,4,4,4,4,4,4,4,4,4,4,4
"217",3830,274.842105263158,4325,-167.210526315789,-27.3157894736842,3742,-304.357894736842,3682,3975,-191.421052631579,-258.094736842105,4037,3690,-255.010526315789,126,0,1555,1771,509,4,4,4,4,4,4,4,4,4,4,4,4,4,4,4,4
"218",3826,268.684210526316,4326,-171.315789473684,-20.6526315789474,3735,-302.810526315789,3665,3974,-197.578947368421,-248.863157894737,4031,3692,-264.757894736842,127,0,1555,1767,497,4,4,4,4,4,4,4,4,4,4,4,4,4,4,4,4
"219",3824,273.305263157895,4334,-165.157894736842,-6.29473684210526,3741,-301.789473684211,3665,3976,-195.526315789474,-242.705263157895,4037,3696,-257.063157894737,128,0,1559,1771,476,4,4,4,4,4,4,4,4,4,4,4,4,4,4,4,4
"220",3824,277.4,4338,-159.515789473684,0.884210526315789,3748,-303.842105263158,3672,3977,-192.957894736842,-249.884210526316,4039,3697,-245.778947368421,0,0,1555,1771,435,4,4,4,4,4,4,4,4,4,4,4,4,4,4,4,4
"221",3816,266.631578947368,4334,-163.621052631579,-1.68421052631579,3742,-306.915789473684,3668,3976,-195.010526315789,-257.578947368421,4035,3696,-252.452631578947,1,0,1555,1771,475,4,4,4,4,4,4,4,4,4,4,4,4,4,4,4,4
"222",3816,256.378947368421,4334,-168.747368421053,2.93684210526316,3738,-307.431578947368,3664,3974,-196.547368421053,-257.063157894737,4034,3699,-261.684210526316,2,0,1555,1771,471,4,4,4,4,4,4,4,4,4,4,4,4,4,4,4,4
"223",3829,258.431578947368,4341,-167.726315789474,13.1894736842105,3744,-306.915789473684,3666,3975,-195.010526315789,-258.094736842105,4035,3699,-258.094736842105,3,0,1555,1767,498,4,4,4,4,4,4,4,4,4,4,4,4,4,4,4,4
"224",3833,262.021052631579,4338,-163.621052631579,15.7578947368421,3748,-309.484210526316,3671,3977,-189.368421052632,-260.652631578947,4036,3694,-254.505263157895,4,0,1551,1767,503,4,4,4,4,4,4,4,4,4,4,4,4,4,4,4,4
"225",3831,255.347368421053,4337,-163.621052631579,19.3473684210526,3745,-309.989473684211,3674,3976,-182.705263157895,-259.115789473684,4037,3694,-259.631578947368,5,0,1555,1771,512,4,4,4,4,4,4,4,4,4,4,4,4,4,4,4,4
"226",3830,249.715789473684,4335,-164.652631578947,27.0421052631579,3744,-307.947368421053,3671,3974,-183.726315789474,-257.063157894737,4041,3695,-257.578947368421,6,0,1555,1763,461,4,4,4,4,4,4,4,4,4,4,4,4,4,4,4,4
"227",3836,253.305263157895,4310,-158.494736842105,27.5473684210526,3750,-317.168421052632,3675,3978,-184.242105263158,-258.094736842105,4046,3693,-247.831578947368,7,0,1551,1767,437,4,4,4,4,4,4,4,4,4,4,4,4,4,4,4,4
"228",3846,263.042105263158,4288,-147.726315789474,32.6842105263158,3766,-335.631578947368,3691,3984,-170.4,-255.526315789474,4055,3695,-241.168421052632,8,0,1555,1763,451,4,4,4,4,4,4,4,4,4,4,4,4,4,4,4,4
"229",3850,264.578947368421,4310,-146.189473684211,47.0421052631579,3776,-342.810526315789,3701,3986,-162.705263157895,-255.010526315789,4063,3698,-240.136842105263,9,0,1551,1763,478,4,4,4,4,4,4,4,4,4,4,4,4,4,4,4,4
"230",3851,255.863157894737,4342,-145.157894736842,46.0105263157895,3773,-341.273684210526,3699,3983,-175.010526315789,-258.6,4058,3698,-242.705263157895,10,0,1555,1763,509,4,4,4,4,4,4,4,4,4,4,4,4,4,4,4,4
"231",3858,247.663157894737,4353,-137.463157894737,47.5473684210526,3767,-341.273684210526,3698,3982,-178.094736842105,-260.136842105263,4051,3697,-242.705263157895,11,0,1551,1759,497,4,4,4,4,4,4,4,4,4,4,4,4,4,4,4,4
"232",3864,247.663157894737,4359,-135.926315789474,75.2421052631579,3774,-341.273684210526,3702,3982,-166.810526315789,-259.115789473684,4051,3701,-240.652631578947,12,0,1551,1759,476,4,4,4,4,4,4,4,4,4,4,4,4,4,4,4,4
"233",3868,249.2,4366,-136.442105263158,98.8315789473684,3778,-336.663157894737,3711,3981,-164.757894736842,-258.6,4052,3708,-238.6,13,0,1551,1755,498,4,4,4,4,4,4,4,4,4,4,4,4,4,4,4,4
"234",3877,237.915789473684,4370,-133.873684210526,98.8315789473684,3769,-328.452631578947,3714,3981,-171.421052631579,-259.631578947368,4050,3711,-241.684210526316,14,0,1555,1751,509,4,4,4,4,4,4,4,4,4,4,4,4,4,4,4,4
"235",3879,233.810526315789,4372,-133.873684210526,92.1684210526316,3768,-321.789473684211,3711,3983,-168.347368421053,-261.684210526316,4051,3706,-240.136842105263,15,0,1547,1747,497,4,4,4,4,4,4,4,4,4,4,4,4,4,4,4,4
"236",3877,244.578947368421,4370,-125.673684210526,84.4736842105263,3784,-320.252631578947,3718,3988,-162.189473684211,-256.547368421053,4058,3703,-230.4,16,0,1551,1751,0,4,4,4,4,4,4,4,4,4,4,4,4,4,4,4,4
"237",3878,247.663157894737,4359,-116.442105263158,73.7052631578947,3789,-321.789473684211,3729,3990,-161.684210526316,-244.757894736842,4065,3706,-226.294736842105,17,0,1555,1747,0,4,4,4,4,4,4,4,4,4,4,4,4,4,4,4,4
"238",3877,234.326315789474,4357,-127.726315789474,69.0842105263158,3773,-323.326315789474,3726,3988,-165.778947368421,-242.189473684211,4058,3708,-230.915789473684,18,0,1547,1747,0,4,4,4,4,4,4,4,4,4,4,4,4,4,4,4,4
"239",3876,228.684210526316,4363,-134.389473684211,74.7263157894737,3769,-323.842105263158,3719,3987,-167.831578947368,-246.294736842105,4053,3703,-231.936842105263,19,0,1555,1747,0,4,4,4,4,4,4,4,4,4,4,4,4,4,4,4,4
"240",3878,234.842105263158,4365,-124.652631578947,79.3473684210526,3779,-323.326315789474,3723,3988,-164.757894736842,-244.757894736842,4056,3701,-229.368421052632,20,0,1551,1747,0,4,4,4,4,4,4,4,4,4,4,4,4,4,4,4,4
"241",3877,227.663157894737,4362,-120.547368421053,77.2947368421053,3779,-323.842105263158,3728,3986,-164.757894736842,-241.684210526316,4054,3705,-230.915789473684,21,0,1551,1747,0,4,4,4,4,4,4,4,4,4,4,4,4,4,4,4,4
"242",3874,216.378947368421,4367,-124.136842105263,82.4210526315789,3773,-326.4,3728,3983,-166.294736842105,-243.726315789474,4051,3708,-232.452631578947,22,0,1547,1747,0,4,4,4,4,4,4,4,4,4,4,4,4,4,4,4,4
"243",3878,222.536842105263,4380,-119.010526315789,95.7578947368421,3780,-324.357894736842,3737,3986,-158.6,-244.757894736842,4059,3710,-228.347368421053,23,0,1555,1743,0,4,4,4,4,4,4,4,4,4,4,4,4,4,4,4,4
"244",3882,230.736842105263,4385,-107.210526315789,96.2736842105263,3787,-324.357894736842,3749,3987,-149.884210526316,-243.726315789474,4069,3713,-224.757894736842,24,0,1551,1743,0,4,4,4,4,4,4,4,4,4,4,4,4,4,4,4,4
"245",3879,221.505263157895,4384,-102.084210526316,94.7263157894737,3783,-330.505263157895,3748,3982,-152.452631578947,-245.273684210526,4064,3717,-226.810526315789,25,0,1547,1747,0,4,4,4,4,4,4,4,4,4,4,4,4,4,4,4,4
"246",3879,216.894736842105,4384,-100.547368421053,109.6,3786,-333.073684210526,3752,3981,-152.957894736842,-245.778947368421,4062,3721,-223.221052631579,26,0,1551,1743,0,4,4,4,4,4,4,4,4,4,4,4,4,4,4,4,4
"247",3890,220.989473684211,4385,-101.063157894737,118.315789473684,3792,-332.557894736842,3758,3981,-149.884210526316,-244.757894736842,4066,3723,-217.063157894737,27,0,1547,1747,0,4,4,4,4,4,4,4,4,4,4,4,4,4,4,4,4
"248",3895,211.757894736842,4376,-110.284210526316,110.631578947368,3784,-336.663157894737,3743,3975,-157.578947368421,-244.757894736842,4056,3723,-226.294736842105,28,0,1547,1747,0,4,4,4,4,4,4,4,4,4,4,4,4,4,4,4,4
"249",3891,195.863157894737,4373,-122.6,109.6,3770,-340.252631578947,3724,3972,-170.915789473684,-246.294736842105,4037,3724,-245.778947368421,29,0,1547,1747,0,4,4,4,4,4,4,4,4,4,4,4,4,4,4,4,4
"250",3903,188.684210526316,4372,-122.6,111.652631578947,3766,-340.768421052632,3729,3972,-169.884210526316,-247.831578947368,4034,3722,-251.421052631579,30,0,1551,1743,0,4,4,4,4,4,4,4,4,4,4,4,4,4,4,4,4
"251",3931,183.557894736842,4371,-114.389473684211,99.3473684210526,3774,342.936842105263,3743,3972,-159.115789473684,-247.831578947368,4046,3723,-241.168421052632,31,0,1543,1751,0,4,4,4,4,4,4,4,4,4,4,4,4,4,4,4,4
"252",3944,186.126315789474,4375,-107.210526315789,87.5473684210526,3786,336.273684210526,3747,3973,-149.884210526316,-244.242105263158,4053,3728,-229.368421052632,32,0,1551,1747,0,4,4,4,4,4,4,4,4,4,4,4,4,4,4,4,4
"253",3945,199.452631578947,4381,-104.652631578947,91.1368421052632,3783,338.831578947368,3748,3974,-149.368421052632,-242.705263157895,4053,3732,-227.831578947368,33,0,1547,1747,0,4,4,4,4,4,4,4,4,4,4,4,4,4,4,4,4
"254",3944,196.894736842105,4381,-113.368421052632,101.4,3754,339.863157894737,3738,3971,-159.631578947368,-246.294736842105,4044,3734,-240.136842105263,34,0,1547,1751,0,4,4,4,4,4,4,4,4,4,4,4,4,4,4,4,4
"255",3946,184.578947368421,4380,-119.515789473684,106.010526315789,3734,341.4,3731,3969,-166.810526315789,-247.831578947368,4034,3737,-247.831578947368,35,0,1551,1743,0,4,4,4,4,4,4,4,4,4,4,4,4,4,4,4,4
"256",3953,190.736842105263,4386,-109.263157894737,111.136842105263,3747,-341.789473684211,3735,3965,-164.757894736842,-245.778947368421,4035,3741,-244.242105263158,36,0,1551,1743,0,4,4,4,4,4,4,4,4,4,4,4,4,4,4,4,4
"257",3959,202.536842105263,4385,-102.6,117.810526315789,3759,-340.768421052632,3739,3961,-159.115789473684,-245.273684210526,4038,3740,-239.631578947368,37,0,1551,1735,0,4,4,4,4,4,4,4,4,4,4,4,4,4,4,4,4
"258",3957,195.863157894737,4383,-106.694736842105,114.726315789474,3751,337.810526315789,3736,3961,-158.094736842105,-250.4,4035,3740,-242.189473684211,38,0,1551,1735,0,4,4,4,4,4,4,4,4,4,4,4,4,4,4,4,4
"259",3954,185.094736842105,4381,-107.210526315789,108.063157894737,3745,331.136842105263,3731,3961,-162.189473684211,-252.957894736842,4036,3737,-242.705263157895,39,0,1547,1735,0,4,4,4,4,4,4,4,4,4,4,4,4,4,4,4,4
"260",3957,178.936842105263,4378,-109.778947368421,116.778947368421,3741,342.421052631579,3728,3957,-163.221052631579,-253.989473684211,4036,3740,-244.242105263158,40,0,1547,1727,0,4,4,4,4,4,4,4,4,4,4,4,4,4,4,4,4
"261",3966,172.789473684211,4370,-117.463157894737,136.273684210526,3722,-337.684210526316,3726,3958,-167.315789473684,-252.957894736842,4025,3748,-253.473684210526,41,0,1547,1727,0,4,4,4,4,4,4,4,4,4,4,4,4,4,4,4,4
"262",3969,170.221052631579,4363,-122.6,134.726315789474,3705,342.936842105263,3721,3960,-176.042105263158,-248.863157894737,4016,3748,-264.242105263158,42,0,1547,1727,0,4,4,4,4,4,4,4,4,4,4,4,4,4,4,4,4
"263",3971,165.610526315789,4359,-123.621052631579,121.4,3708,332.168421052632,3716,3958,-176.547368421053,-246.294736842105,4017,3742,-262.705263157895,43,0,1543,1719,0,4,4,4,4,4,4,4,4,4,4,4,4,4,4,4,4
"264",3983,162.536842105263,4360,-120.031578947368,129.084210526316,3718,335.242105263158,3722,3957,-167.315789473684,-246.810526315789,4024,3744,-250.915789473684,44,0,1547,1723,0,4,4,4,4,4,4,4,4,4,4,4,4,4,4,4,4
"265",3998,168.684210526316,4365,-116.957894736842,148.578947368421,3722,337.294736842105,3730,3958,-166.294736842105,-245.778947368421,4028,3753,-251.936842105263,45,0,1547,1715,0,4,4,4,4,4,4,4,4,4,4,4,4,4,4,4,4
"266",3999,168.684210526316,4367,-117.463157894737,151.136842105263,3721,327.547368421053,3731,3957,-170.915789473684,-242.189473684211,4027,3753,-262.705263157895,46,0,1543,1719,0,4,4,4,4,4,4,4,4,4,4,4,4,4,4,4,4
"267",3996,161.505263157895,4367,-113.873684210526,149.084210526316,3729,320.368421052632,3737,3958,-165.778947368421,-242.189473684211,4025,3751,-257.063157894737,47,0,1547,1719,0,4,4,4,4,4,4,4,4,4,4,4,4,4,4,4,4
"268",4003,165.610526315789,4361,-103.105263157895,156.778947368421,3744,316.273684210526,3750,3957,-156.042105263158,-243.726315789474,4031,3756,-242.705263157895,48,0,1543,1723,0,4,4,4,4,4,4,4,4,4,4,4,4,4,4,4,4
"269",4010,174.326315789474,4359,-100.547368421053,167.547368421053,3756,311.136842105263,3761,3955,-146.810526315789,-239.631578947368,4043,3765,-237.578947368421,49,0,1543,1727,0,4,4,4,4,4,4,4,4,4,4,4,4,4,4,4,4
"270",4014,183.042105263158,4362,-102.084210526316,176.778947368421,3774,308.063157894737,3774,3957,-136.547368421053,-230.915789473684,4055,3769,-228.863157894737,50,0,1543,1727,0,4,4,4,4,4,4,4,4,4,4,4,4,4,4,4,4
"271",4025,186.631578947368,4361,-100.031578947368,179.863157894737,3798,306.010526315789,3785,3955,-129.368421052632,-228.347368421053,4062,3769,-213.473684210526,51,0,1543,1727,0,4,4,4,4,4,4,4,4,4,4,4,4,4,4,4,4
"272",4037,179.968421052632,4357,-100.547368421053,180.368421052632,3809,299.347368421053,3791,3949,-131.421052631579,-231.421052631579,4061,3770,-212.957894736842,52,0,1543,1727,0,4,4,4,4,4,4,4,4,4,4,4,4,4,4,4,4
"273",4043,174.326315789474,4361,-103.105263157895,186.526315789474,3811,283.452631578947,3798,3953,-133.473684210526,-227.315789473684,4061,3769,-216.547368421053,53,0,1547,1731,0,4,4,4,4,4,4,4,4,4,4,4,4,4,4,4,4
"274",4044,177.915789473684,4366,-99.0105263157895,193.705263157895,3822,271.136842105263,3803,3956,-130.4,-220.652631578947,4063,3771,-213.473684210526,54,0,1543,1731,0,4,4,4,4,4,4,4,4,4,4,4,4,4,4,4,4
"275",4048,185.094736842105,4363,-103.621052631579,202.421052631579,3835,279.347368421053,3810,3947,-129.368421052632,-217.578947368421,4064,3775,-210.4,55,0,1543,1739,0,4,4,4,4,4,4,4,4,4,4,4,4,4,4,4,4
"276",4050,188.168421052632,4364,-130.8,211.652631578947,3844,286.010526315789,3821,3943,-129.884210526316,-213.989473684211,4064,3780,-206.294736842105,56,0,1551,1735,0,4,4,4,4,4,4,4,4,4,4,4,4,4,4,4,4
"277",4049,182.536842105263,4360,-157.463157894737,207.547368421053,3832,273.18947368421,3827,3948,-128.863157894737,-210.915789473684,4066,3784,-206.810526315789,57,0,1543,1739,0,4,4,4,4,4,4,4,4,4,4,4,4,4,4,4,4
"278",4051,171.252631578947,4351,-165.673684210526,198.831578947368,3803,267.547368421053,3820,3946,-133.473684210526,-210.4,4055,3784,-220.652631578947,58,0,1547,1743,0,4,4,4,4,4,4,4,4,4,4,4,4,4,4,4,4
"279",4056,173.810526315789,4346,-161.063157894737,206.526315789474,3808,272.684210526316,3817,3942,-134.505263157895,-212.452631578947,4047,3782,-224.757894736842,59,0,1551,1739,0,4,4,4,4,4,4,4,4,4,4,4,4,4,4,4,4
"280",4063,174.842105263158,4352,-158.494736842105,214.221052631579,3758,274.221052631579,3822,3943,-141.684210526316,-209.884210526316,4045,3785,-231.421052631579,60,0,1551,1739,0,4,4,4,4,4,4,4,4,4,4,4,4,4,4,4,4
"281",4070,162.021052631579,4354,-165.673684210526,213.189473684211,3581,280.884210526316,3808,3945,-172.957894736842,-201.168421052632,4011,3787,-278.094736842105,61,0,1547,1743,0,4,4,4,4,4,4,4,4,4,4,4,4,4,4,4,4
"282",4074,151.252631578947,4349,-174.905263157895,217.294736842105,3447,289.084210526316,3781,3946,-203.221052631579,-196.547368421053,3967,3787,-325.778947368421,62,0,1551,1747,0,4,4,4,4,4,4,4,4,4,4,4,4,4,4,4,4
"283",4073,150.221052631579,4345,-172.852631578947,226.010526315789,3464,285.494736842105,3779,3946,-204.242105263158,-197.063157894737,3963,3791,-328.863157894737,63,0,1551,1747,0,4,4,4,4,4,4,4,4,4,4,4,4,4,4,4,4
"284",4081,154.326315789474,4339,-167.210526315789,227.547368421053,3507,291.136842105263,3796,3945,-197.578947368421,-196.547368421053,3975,3797,-317.578947368421,64,0,1551,1755,435,4,4,4,4,4,4,4,4,4,4,4,4,4,4,4,4
"285",4091,157.915789473684,4332,-173.873684210526,223.452631578947,3504,304.473684210526,3798,3944,-202.705263157895,-196.547368421053,3963,3797,-321.684210526316,65,0,1555,1755,475,4,4,4,4,4,4,4,4,4,4,4,4,4,4,4,4
"286",4091,154.842105263158,4325,-176.957894736842,221.905263157895,3526,306.010526315789,3799,3943,-204.242105263158,-196.547368421053,3956,3793,-320.136842105263,66,0,1551,1759,471,4,4,4,4,4,4,4,4,4,4,4,4,4,4,4,4
"287",4091,155.347368421053,4325,-173.368421052632,227.042105263158,3564,302.421052631579,3813,3943,-198.094736842105,-198.094736842105,3970,3795,-311.936842105263,67,0,1551,1759,498,4,4,4,4,4,4,4,4,4,4,4,4,4,4,4,4
"288",4093,164.578947368421,4324,-169.263157894737,223.957894736842,3580,301.905263157895,3825,3944,-195.526315789474,-199.631578947368,3976,3797,-304.757894736842,68,0,1555,1759,503,4,4,4,4,4,4,4,4,4,4,4,4,4,4,4,4
"289",4090,158.936842105263,4329,-166.694736842105,203.452631578947,3578,310.115789473684,3828,3943,-193.989473684211,-200.652631578947,3972,3793,-298.094736842105,69,0,1555,1759,512,4,4,4,4,4,4,4,4,4,4,4,4,4,4,4,4
"290",4099,152.273684210526,4335,-165.673684210526,204.989473684211,3592,323.452631578947,3834,3942,-188.347368421053,-198.094736842105,3976,3795,-294.505263157895,70,0,1547,1763,461,4,4,4,4,4,4,4,4,4,4,4,4,4,4,4,4
"291",4127,174.326315789474,4331,-165.157894736842,235.757894736842,3635,325.494736842105,3848,3944,-179.631578947368,-200.652631578947,3992,3803,-285.778947368421,71,0,1555,1767,437,4,4,4,4,4,4,4,4,4,4,4,4,4,4,4,4
"292",4139,191.252631578947,4325,-158.494736842105,235.757894736842,3663,323.452631578947,3860,3945,-168.863157894737,-204.757894736842,4007,3802,-268.347368421053,72,0,1555,1763,452,4,4,4,4,4,4,4,4,4,4,4,4,4,4,4,4
"293",4141,184.578947368421,4327,-146.694736842105,216.778947368421,3675,338.315789473684,3871,3944,-155.526315789474,-199.631578947368,4015,3801,-250.4,73,0,1551,1767,478,4,4,4,4,4,4,4,4,4,4,4,4,4,4,4,4
"294",4151,195.347368421053,4328,-146.189473684211,234.221052631579,3705,-339.221052631579,3887,3944,-148.347368421053,-197.578947368421,4022,3813,-242.189473684211,74,0,1555,1771,509,4,4,4,4,4,4,4,4,4,4,4,4,4,4,4,4
"295",4155,205.610526315789,4322,-151.315789473684,257.294736842105,3723,340.368421052632,3895,3944,-148.863157894737,-207.315789473684,4025,3813,-241.684210526316,75,0,1555,1775,497,4,4,4,4,4,4,4,4,4,4,4,4,4,4,4,4
"296",4152,185.610526315789,4321,-152.336842105263,232.684210526316,3704,332.168421052632,3893,3942,-152.452631578947,-212.957894736842,4019,3802,-245.273684210526,76,0,1551,1775,474,4,4,4,4,4,4,4,4,4,4,4,4,4,4,4,4
"297",4158,185.094736842105,4320,-145.157894736842,208.063157894737,3717,340.884210526316,3910,3939,-148.347368421053,-208.347368421053,4019,3802,-238.094736842105,77,0,1551,1783,498,4,4,4,4,4,4,4,4,4,4,4,4,4,4,4,4
"298",4168,211.757894736842,4324,-137.463157894737,233.189473684211,3772,-330.505263157895,3938,3941,-135.526315789474,-208.347368421053,4034,3814,-220.136842105263,78,0,1555,1787,509,4,4,4,4,4,4,4,4,4,4,4,4,4,4,4,4
"299",4183,223.557894736842,4332,-129.263157894737,249.6,3794,-322.810526315789,3949,3944,-124.242105263158,-207.315789473684,4044,3818,-210.915789473684,79,0,1555,1791,497,4,4,4,4,4,4,4,4,4,4,4,4,4,4,4,4
"300",4190,218.431578947368,4337,-124.136842105263,228.063157894737,3792,-333.578947368421,3953,3945,-119.115789473684,-201.684210526316,4046,3814,-206.810526315789,80,0,1555,1791,474,4,4,4,4,4,4,4,4,4,4,4,4,4,4,4,4
"301",4174,226.631578947368,4333,-126.189473684211,223.957894736842,3823,-338.2,3970,3943,-110.915789473684,-202.705263157895,4051,3814,-197.063157894737,81,0,1559,1795,498,4,4,4,4,4,4,4,4,4,4,4,4,4,4,4,4
"302",4174,240.484210526316,4336,-130.8,244.989473684211,3861,-329.989473684211,3991,3943,-102.705263157895,-208.347368421053,4063,3815,-190.4,82,0,1551,1791,509,4,4,4,4,4,4,4,4,4,4,4,4,4,4,4,4
"303",4210,234.842105263158,4346,-140.547368421053,248.578947368421,3850,-333.578947368421,4001,3944,-101.684210526316,-211.421052631579,4065,3815,-191.936842105263,83,0,1555,1791,497,4,4,4,4,4,4,4,4,4,4,4,4,4,4,4,4
"304",4227,219.452631578947,4352,-150.284210526316,236.778947368421,3813,-342.305263157895,3996,3945,-106.294736842105,-211.421052631579,4058,3813,-198.094736842105,84,0,1559,1783,474,4,4,4,4,4,4,4,4,4,4,4,4,4,4,4,4
"305",4264,219.968421052632,4361,-152.852631578947,245.494736842105,3791,-334.094736842105,3996,3946,-109.884210526316,-211.421052631579,4052,3816,-208.347368421053,85,0,1551,1783,498,4,4,4,4,4,4,4,4,4,4,4,4,4,4,4,4
"306",4413,245.094736842105,4375,-154.389473684211,285.494736842105,3805,-319.736842105263,4007,3947,-110.4,-213.989473684211,4049,3827,-213.473684210526,86,0,1559,1775,509,4,4,4,4,4,4,4,4,4,4,4,4,4,4,4,4
"307",4564,272.273684210526,4391,-167.726315789474,306.010526315789,3835,-310.505263157895,4016,3950,-108.347368421053,-216.042105263158,4047,3836,-204.757894736842,87,0,1555,1771,497,4,4,4,4,4,4,4,4,4,4,4,4,4,4,4,4
"308",4679,270.221052631579,4404,-177.978947368421,291.652631578947,3833,-298.715789473684,4021,3956,-107.831578947368,-215.526315789474,4045,3839,-198.094736842105,88,0,1555,1775,474,4,4,4,4,4,4,4,4,4,4,4,4,4,4,4,4
"309",4958,217.4,4418,-179.515789473684,320.368421052632,3816,-286.915789473684,4027,3941,-110.915789473684,-223.221052631579,4042,3852,-206.810526315789,89,0,1555,1771,498,4,4,4,4,4,4,4,4,4,4,4,4,4,4,4,4
"310",5366,134.842105263158,4429,-192.336842105263,-302.305263157895,3848,-256.147368421053,4035,3897,-116.547368421053,-237.578947368421,4037,3873,-211.421052631579,90,0,1559,1771,509,4,4,4,4,4,4,4,4,4,4,4,4,4,4,4,4
"311",5610,25.0947368421053,4438,-211.315789473684,-296.147368421053,3888,-214.610526315789,4044,3864,-124.242105263158,-245.273684210526,4026,3882,-213.473684210526,91,0,1551,1775,497,4,4,4,4,4,4,4,4,4,4,4,4,4,4,4,4
"312",5685,-150.284210526316,4442,-224.136842105263,-316.147368421053,3885,-205.378947368421,4048,3863,-135.526315789474,-244.757894736842,4010,3878,-228.863157894737,92,0,1555,1775,474,4,4,4,4,4,4,4,4,4,4,4,4,4,4,4,4
"313",5851,-304.136842105263,4449,-233.368421052632,-297.168421052632,3871,-201.273684210526,4044,3873,-143.221052631579,-249.368421052632,3998,3883,-250.915789473684,93,0,1555,1771,498,4,4,4,4,4,4,4,4,4,4,4,4,4,4,4,4
"314",6112,-314.905263157895,4463,-244.652631578947,-275.126315789474,3894,-169.989473684211,4044,3868,-140.136842105263,-259.631578947368,3998,3894,-254.505263157895,94,0,1551,1779,509,4,4,4,4,4,4,4,4,4,4,4,4,4,4,4,4
"315",6248,-246.694736842105,4476,-256.442105263158,-247.947368421053,3942,-161.273684210526,4068,3861,-126.810526315789,-263.221052631579,4012,3899,-235.010526315789,95,0,1559,1775,497,4,4,4,4,4,4,4,4,4,4,4,4,4,4,4,4
"316",6315,-199.515789473684,4494,-255.421052631579,-205.378947368421,3973,-203.842105263158,4092,3866,-110.915789473684,-258.6,4030,3904,-216.042105263158,96,0,1551,1779,474,4,4,4,4,4,4,4,4,4,4,4,4,4,4,4,4
"317",6617,-151.831578947368,4517,-254.905263157895,-179.736842105263,3992,-243.326315789474,4090,3868,-102.705263157895,-257.063157894737,4042,3913,-209.884210526316,97,0,1555,1783,498,4,4,4,4,4,4,4,4,4,4,4,4,4,4,4,4
"318",7045,-93.8736842105263,4533,-276.442105263158,-153.073684210526,4028,-258.715789473684,4077,3862,-107.831578947368,-262.18947368421,4043,3921,-205.273684210526,98,0,1555,1787,509,4,4,4,4,4,4,4,4,4,4,4,4,4,4,4,4
"319",7238,-44.6526315789474,4534,-295.421052631579,-115.126315789474,4077,-284.863157894737,4092,3858,-102.189473684211,-264.242105263158,4054,3928,-186.810526315789,99,0,1559,1787,497,4,4,4,4,4,4,4,4,4,4,4,4,4,4,4,4
"320",7255,17.9157894736842,4539,-285.673684210526,-115.126315789474,4119,-311.021052631579,4123,3864,-77.5789473684211,-259.115789473684,4076,3932,-159.115789473684,100,0,1551,1799,474,4,4,4,4,4,4,4,4,4,4,4,4,4,4,4,4
"321",7307,94.3263157894737,4548,-268.242105263158,-139.221052631579,4167,-311.536842105263,4147,3863,-54.5052631578947,-255.010526315789,4100,3929,-133.989473684211,101,0,1559,1803,498,4,4,4,4,4,4,4,4,4,4,4,4,4,4,4,4
"322",7361,156.378947368421,4556,-263.105263157895,-130.505263157895,4202,-301.789473684211,4168,3855,-38.6,-257.063157894737,4119,3927,-114.505263157895,102,0,1555,1803,509,4,4,4,4,4,4,4,4,4,4,4,4,4,4,4,4
"323",7387,199.452631578947,4561,-259.515789473684,-106.915789473684,4196,-294.610526315789,4176,3849,-28.3473684210526,-258.094736842105,4128,3935,-106.294736842105,103,0,1555,1819,497,4,4,4,4,4,4,4,4,4,4,4,4,4,4,4,4
"324",7409,214.326315789474,4558,-258.494736842105,-91.5368421052632,4189,-279.736842105263,4166,3837,-28.3473684210526,-256.042105263158,4125,3940,-105.778947368421,104,0,1559,1823,474,4,4,4,4,4,4,4,4,4,4,4,4,4,4,4,4
"325",7407,199.452631578947,4554,-268.242105263158,-67.4315789473684,4192,-233.578947368421,4152,3819,-30.9157894736842,-260.136842105263,4120,3941,-111.936842105263,105,0,1559,1831,498,4,4,4,4,4,4,4,4,4,4,4,4,4,4,4,4
"326",7411,175.863157894737,4555,-281.568421052632,-37.1684210526316,4183,-161.789473684211,4139,3810,-32.4526315789474,-268.347368421053,4112,3941,-123.221052631579,106,0,1559,1843,509,4,4,4,4,4,4,4,4,4,4,4,4,4,4,4,4
"327",7425,156.378947368421,4553,-292.852631578947,-23.8421052631579,4166,-106.4,4123,3812,-44.7578947368421,-274.505263157895,4098,3944,-136.042105263158,107,0,1559,1851,497,4,4,4,4,4,4,4,4,4,4,4,4,4,4,4,4
"328",7431,128.168421052632,4543,-296.442105263158,-25.8947368421053,4158,-94.6105263157895,4108,3813,-58.0947368421053,-274.505263157895,4088,3946,-148.347368421053,108,0,1563,1847,474,4,4,4,4,4,4,4,4,4,4,4,4,4,4,4,4
"329",7465,80.4842105263158,4539,-302.084210526316,-28.4526315789474,4143,-91.0210526315789,4096,3811,-66.8105263157895,-275.526315789474,4079,3946,-161.684210526316,109,0,1559,1851,498,4,4,4,4,4,4,4,4,4,4,4,4,4,4,4,4
"330",7491,14.3263157894737,4537,-309.778947368421,-27.4315789473684,4111,-75.1263157894737,4080,3812,-80.6526315789474,-276.042105263158,4064,3949,-181.684210526316,110,0,1563,1855,509,4,4,4,4,4,4,4,4,4,4,4,4,4,4,4,4
"331",7450,-83.1052631578947,4528,-313.873684210526,-26.9157894736842,4086,-78.2,4062,3816,-100.136842105263,-268.347368421053,4046,3955,-202.189473684211,111,0,1563,1843,497,4,4,4,4,4,4,4,4,4,4,4,4,4,4,4,4
"332",7383,-196.442105263158,4513,-308.747368421053,-32.0421052631579,4069,-94.0947368421053,4049,3820,-113.989473684211,-260.652631578947,4030,3957,-216.042105263158,112,0,1563,1835,474,4,4,4,4,4,4,4,4,4,4,4,4,4,4,4,4
"333",7351,-267.726315789474,4499,-300.031578947368,-41.7894736842105,4041,-96.1473684210526,4043,3819,-122.189473684211,-261.168421052632,4019,3948,-227.831578947368,113,0,1563,1827,498,4,4,4,4,4,4,4,4,4,4,4,4,4,4,4,4
"334",7313,-287.726315789474,4478,-289.263157894737,-55.6315789473684,4006,-91.5368421052632,4038,3818,-128.863157894737,-261.168421052632,4014,3942,-238.094736842105,114,0,1563,1807,509,4,4,4,4,4,4,4,4,4,4,4,4,4,4,4,4
"335",7223,-299.010526315789,4450,-284.136842105263,-73.0736842105263,3968,-93.0736842105263,4031,3818,-134.505263157895,-261.684210526316,4007,3942,-246.294736842105,115,0,1563,1791,497,4,4,4,4,4,4,4,4,4,4,4,4,4,4,4,4
"336",7126,-302.6,4419,-288.242105263158,-83.8421052631579,3926,-95.6315789473684,4024,3816,-140.652631578947,-258.6,3998,3943,-258.6,116,0,1563,1763,474,4,4,4,4,4,4,4,4,4,4,4,4,4,4,4,4
"337",7036,-278.494736842105,4393,-284.136842105263,-91.0210526315789,3906,-94.6105263157895,4026,3815,-137.578947368421,-248.863157894737,3999,3938,-259.631578947368,117,0,1559,1755,498,4,4,4,4,4,4,4,4,4,4,4,4,4,4,4,4
"338",6907,-242.084210526316,4376,-264.652631578947,-119.736842105263,3907,-92.0421052631579,4035,3814,-127.831578947368,-242.189473684211,4004,3930,-245.778947368421,118,0,1563,1751,509,4,4,4,4,4,4,4,4,4,4,4,4,4,4,4,4
"339",6774,-209.778947368421,4353,-240.031578947368,-143.842105263158,3892,-78.7157894736842,4035,3806,-124.242105263158,-240.136842105263,4004,3925,-240.652631578947,119,0,1559,1747,497,4,4,4,4,4,4,4,4,4,4,4,4,4,4,4,4
"340",6621,-182.6,4327,-219.515789473684,-142.810526315789,3869,-60.2526315789474,4030,3799,-122.189473684211,-231.421052631579,4005,3927,-243.221052631579,120,0,1559,1743,474,4,4,4,4,4,4,4,4,4,4,4,4,4,4,4,4
"341",6359,-156.957894736842,4304,-197.463157894737,-173.073684210526,3873,-50.5052631578947,4048,3799,-106.294736842105,-218.094736842105,4017,3921,-228.347368421053,121,0,1555,1739,498,4,4,4,4,4,4,4,4,4,4,4,4,4,4,4,4
"342",6116,-124.652631578947,4300,-175.421052631579,-233.073684210526,3899,-51.5368421052632,4075,3801,-84.2421052631579,-212.452631578947,4038,3909,-204.242105263158,122,0,1555,1743,509,4,4,4,4,4,4,4,4,4,4,4,4,4,4,4,4
"343",6013,-84.6526315789474,4311,-160.547368421053,-252.557894736842,3923,-41.2736842105263,4079,3799,-70.9157894736842,-213.989473684211,4058,3903,-193.473684210526,123,0,1555,1731,497,4,4,4,4,4,4,4,4,4,4,4,4,4,4,4,4
"344",5904,-48.7473684210526,4321,-152.852631578947,-243.326315789474,3930,-35.6315789473684,4072,3798,-64.7578947368421,-215.010526315789,4065,3896,-192.452631578947,124,0,1551,1735,474,4,4,4,4,4,4,4,4,4,4,4,4,4,4,4,4
"345",5758,-25.6736842105263,4323,-142.6,-251.021052631579,3926,-96.6631578947368,4076,3798,-63.7263157894737,-211.936842105263,4063,3890,-194.505263157895,125,0,1551,1731,498,4,4,4,4,4,4,4,4,4,4,4,4,4,4,4,4
"346",5730,-4.13684210526316,4333,-124.652631578947,-249.989473684211,3928,-186.4,4089,3800,-60.6526315789474,-209.368421052632,4072,3890,-185.778947368421,126,0,1551,1735,509,4,4,4,4,4,4,4,4,4,4,4,4,4,4,4,4
"347",5766,23.5578947368421,4355,-113.873684210526,-228.452631578947,3940,-206.4,4095,3799,-52.4526315789474,-210.915789473684,4087,3891,-175.526315789474,127,0,1547,1743,497,4,4,4,4,4,4,4,4,4,4,4,4,4,4,4,4
"348",5745,43.5578947368421,4368,-116.957894736842,-215.126315789474,3948,-181.789473684211,4093,3792,-55.5263157894737,-210.915789473684,4086,3892,-176.042105263158,128,0,1547,1751,474,4,4,4,4,4,4,4,4,4,4,4,4,4,4,4,4
"349",5720,48.1684210526316,4367,-126.694736842105,-214.610526315789,3937,-189.989473684211,4082,3787,-68.8631578947368,-212.452631578947,4074,3891,-181.168421052632,0,0,1551,1755,435,4,4,4,4,4,4,4,4,4,4,4,4,4,4,4,4
"350",5741,53.3052631578947,4368,-134.389473684211,-212.042105263158,3924,-205.894736842105,4056,3787,-75.5263157894737,-215.010526315789,4067,3885,-189.884210526316,1,0,1543,1759,472,4,4,4,4,4,4,4,4,4,4,4,4,4,4,4,4
"351",5699,62.5368421052632,4377,-133.873684210526,-204.863157894737,3925,-198.715789473684,4027,3784,-73.9894736842105,-216.042105263158,4065,3881,-197.578947368421,2,0,1547,1771,430,4,4,4,4,4,4,4,4,4,4,4,4,4,4,4,4
"352",5532,75.8631578947368,4382,-124.136842105263,-202.305263157895,3928,-199.221052631579,4018,3780,-71.4210526315789,-213.473684210526,4068,3881,-195.010526315789,3,0,1547,1767,493,4,4,4,4,4,4,4,4,4,4,4,4,4,4,4,4
"353",5378,94.8421052631579,4385,-117.978947368421,-203.326315789474,3926,-211.021052631579,4028,3783,-65.2736842105263,-212.452631578947,4073,3877,-184.757894736842,4,0,1543,1779,503,4,4,4,4,4,4,4,4,4,4,4,4,4,4,4,4
"354",5351,117.4,4393,-112.852631578947,-199.736842105263,3938,-212.557894736842,4037,3786,-51.4210526315789,-213.989473684211,4086,3876,-175.010526315789,5,0,1547,1783,512,4,4,4,4,4,4,4,4,4,4,4,4,4,4,4,4
"355",5352,138.431578947368,4400,-101.063157894737,-192.557894736842,3965,-209.484210526316,4043,3784,-36.0421052631579,-214.505263157895,4104,3877,-164.242105263158,6,0,1547,1791,461,4,4,4,4,4,4,4,4,4,4,4,4,4,4,4,4
"356",5307,155.863157894737,4401,-90.2842105263158,-184.863157894737,3976,-215.631578947368,4041,3784,-30.9157894736842,-212.957894736842,4110,3876,-155.526315789474,7,0,1547,1791,437,4,4,4,4,4,4,4,4,4,4,4,4,4,4,4,4
"357",5290,176.894736842105,4402,-83.1052631578947,-174.610526315789,3972,-238.2,4041,3788,-31.4210526315789,-211.936842105263,4109,3872,-150.4,8,0,1547,1799,452,4,4,4,4,4,4,4,4,4,4,4,4,4,4,4,4
"358",5219,200.989473684211,4404,-75.4210526315789,-169.484210526316,3982,-285.894736842105,4054,3790,-21.6842105263158,-212.957894736842,4121,3869,-140.652631578947,9,0,1555,1791,478,4,4,4,4,4,4,4,4,4,4,4,4,4,4,4,4
"359",4988,224.073684210526,4398,-63.1052631578947,-168.452631578947,3992,-334.094736842105,4063,3786,-6.29473684210526,-206.294736842105,4135,3863,-129.884210526316,10,0,1551,1787,508,4,4,4,4,4,4,4,4,4,4,4,4,4,4,4,4
"360",4775,240.989473684211,4399,-55.9263157894737,-162.810526315789,3982,342.421052631579,4055,3785,-5.27368421052632,-197.578947368421,4137,3853,-124.757894736842,11,0,1555,1787,499,4,4,4,4,4,4,4,4,4,4,4,4,4,4,4,4
"361",4715,257.4,4401,-52.3368421052632,-154.610526315789,3971,-341.273684210526,4048,3783,-12.4526315789474,-203.221052631579,4136,3845,-125.778947368421,12,0,1551,1779,473,4,4,4,4,4,4,4,4,4,4,4,4,4,4,4,4
"362",4707,275.347368421053,4403,-46.6947368421053,-151.021052631579,3966,-337.684210526316,4048,3778,-15.5263157894737,-212.957894736842,4133,3838,-126.810526315789,13,0,1555,1779,498,4,4,4,4,4,4,4,4,4,4,4,4,4,4,4,4
"363",4680,304.073684210526,4401,-29.2631578947368,-148.452631578947,3966,-327.431578947368,4055,3774,-9.36842105263158,-205.778947368421,4135,3808,-118.6,14,0,1555,1775,508,4,4,4,4,4,4,4,4,4,4,4,4,4,4,4,4
"364",4627,-344.242105263158,4395,-6.69473684210526,-143.842105263158,3979,-316.147368421053,4070,3776,6.52631578947368,-193.473684210526,4155,3754,-96.5473684210526,15,0,1555,1779,499,4,4,4,4,4,4,4,4,4,4,4,4,4,4,4,4
"365",4529,-315.010526315789,4382,8.16842105263158,-138.715789473684,3992,-320.252631578947,4080,3772,18.8315789473684,-194.505263157895,4174,3723,-77.0631578947368,16,0,1559,1771,0,4,4,4,4,4,4,4,4,4,4,4,4,4,4,4,4
"366",4452,-303.726315789474,4373,15.8631578947368,-135.126315789474,3991,-319.736842105263,4076,3764,19.8631578947368,-199.631578947368,4173,3724,-75.5263157894737,17,0,1555,1775,0,4,4,4,4,4,4,4,4,4,4,4,4,4,4,4,4
"367",4438,-294.505263157895,4369,14.8421052631579,-130.505263157895,3987,-308.968421052632,4071,3761,17.2947368421053,-198.094736842105,4168,3732,-84.2421052631579,18,0,1559,1775,0,4,4,4,4,4,4,4,4,4,4,4,4,4,4,4,4
"368",4415,-285.273684210526,4369,10.7368421052632,-122.305263157895,3986,-303.842105263158,4070,3760,20.8842105263158,-196.042105263158,4172,3733,-85.2736842105263,19,0,1555,1771,0,4,4,4,4,4,4,4,4,4,4,4,4,4,4,4,4
"369",4383,-285.778947368421,4378,4.07368421052632,-115.631578947368,3978,-306.4,4067,3757,19.3473684210526,-203.726315789474,4164,3734,-90.4,20,0,1559,1775,0,4,4,4,4,4,4,4,4,4,4,4,4,4,4,4,4
"370",4361,-293.473684210526,4384,-8.74736842105263,-107.947368421053,3957,-306.915789473684,4053,3754,5.49473684210526,-207.831578947368,4146,3738,-108.863157894737,21,0,1559,1767,0,4,4,4,4,4,4,4,4,4,4,4,4,4,4,4,4
"371",4327,-295.010526315789,4385,-22.6,-96.1473684210526,3932,-303.326315789474,4036,3754,-12.9578947368421,-201.684210526316,4130,3748,-128.347368421053,22,0,1559,1767,0,4,4,4,4,4,4,4,4,4,4,4,4,4,4,4,4
"372",4291,-286.294736842105,4385,-22.6,-88.9684210526316,3923,-301.789473684211,4039,3754,-20.1368421052632,-198.6,4123,3752,-132.957894736842,23,0,1559,1767,0,4,4,4,4,4,4,4,4,4,4,4,4,4,4,4,4
"373",4272,-278.6,4392,-14.9052631578947,-92.5578947368421,3922,-303.842105263158,4052,3754,-11.9368421052632,-202.705263157895,4125,3746,-129.368421052632,24,0,1559,1763,0,4,4,4,4,4,4,4,4,4,4,4,4,4,4,4,4
"374",4254,-270.4,4371,-14.3894736842105,-96.6631578947368,3912,-306.915789473684,4050,3753,-3.72631578947368,-201.168421052632,4127,3741,-126.810526315789,25,0,1559,1759,0,4,4,4,4,4,4,4,4,4,4,4,4,4,4,4,4
"375",4225,-258.094736842105,4323,-19.0105263157895,-87.4315789473684,3905,-307.431578947368,4042,3753,-4.7578947368421,-196.547368421053,4123,3748,-128.347368421053,26,0,1559,1763,0,4,4,4,4,4,4,4,4,4,4,4,4,4,4,4,4
"376",4195,-251.936842105263,4303,-21.5684210526316,-80.2526315789474,3902,-300.252631578947,4039,3753,-8.34736842105263,-197.063157894737,4121,3754,-133.473684210526,27,0,1559,1759,0,4,4,4,4,4,4,4,4,4,4,4,4,4,4,4,4
"377",4163,-251.421052631579,4318,-19.5157894736842,-90.5052631578947,3892,-292.557894736842,4036,3748,-11.4210526315789,-197.578947368421,4121,3749,-136.042105263158,28,0,1559,1755,0,4,4,4,4,4,4,4,4,4,4,4,4,4,4,4,4
"378",4127,-246.294736842105,4328,-17.9789473684211,-97.6842105263158,3889,-293.073684210526,4032,3741,-16.0421052631579,-198.094736842105,4119,3749,-136.042105263158,29,0,1555,1755,0,4,4,4,4,4,4,4,4,4,4,4,4,4,4,4,4
"379",4106,-232.957894736842,4316,-17.9789473684211,-83.3263157894737,3893,-293.073684210526,4036,3743,-13.4736842105263,-198.6,4120,3753,-134.505263157895,30,0,1559,1751,0,4,4,4,4,4,4,4,4,4,4,4,4,4,4,4,4
"380",4106,-225.273684210526,4299,-19.0105263157895,-77.6842105263158,3898,-287.431578947368,4041,3749,-4.7578947368421,-197.063157894737,4123,3755,-132.957894736842,31,0,1555,1743,0,4,4,4,4,4,4,4,4,4,4,4,4,4,4,4,4
"381",4102,-232.452631578947,4288,-16.9578947368421,-92.0421052631579,3899,-287.431578947368,4043,3750,-1.68421052631579,-194.505263157895,4126,3752,-132.957894736842,32,0,1555,1743,0,4,4,4,4,4,4,4,4,4,4,4,4,4,4,4,4
"382",4091,-246.294736842105,4297,-10.8,-96.1473684210526,3884,-291.536842105263,4044,3746,-3.22105263157895,-195.526315789474,4127,3754,-135.010526315789,33,0,1551,1731,0,4,4,4,4,4,4,4,4,4,4,4,4,4,4,4,4
"383",4087,-239.115789473684,4306,-0.547368421052632,-95.1263157894737,3880,-289.989473684211,4049,3744,1.90526315789474,-199.115789473684,4129,3754,-132.452631578947,34,0,1547,1727,0,4,4,4,4,4,4,4,4,4,4,4,4,4,4,4,4
"384",4088,-226.294736842105,4302,2.02105263157895,-104.863157894737,3903,-287.947368421053,4050,3744,12.6842105263158,-199.631578947368,4135,3753,-124.242105263158,35,0,1547,1723,0,4,4,4,4,4,4,4,4,4,4,4,4,4,4,4,4
"385",4082,-236.042105263158,4298,-2.08421052631579,-105.378947368421,3909,-288.452631578947,4049,3744,18.8315789473684,-197.578947368421,4139,3755,-117.578947368421,36,0,1543,1723,0,4,4,4,4,4,4,4,4,4,4,4,4,4,4,4,4
"386",4079,-257.063157894737,4293,4.07368421052632,-95.6315789473684,3885,-290.505263157895,4057,3745,19.8631578947368,-195.010526315789,4139,3759,-118.6,37,0,1547,1723,0,4,4,4,4,4,4,4,4,4,4,4,4,4,4,4,4
"387",4085,-272.957894736842,4282,11.2526315789474,-97.6842105263158,3874,-292.042105263158,4058,3741,12.6842105263158,-200.136842105263,4136,3767,-124.757894736842,38,0,1539,1727,0,4,4,4,4,4,4,4,4,4,4,4,4,4,4,4,4
"388",4091,-273.473684210526,4260,11.7578947368421,-107.431578947368,3903,-296.147368421053,4052,3734,14.7263157894737,-209.368421052632,4135,3766,-124.757894736842,39,0,1543,1731,0,4,4,4,4,4,4,4,4,4,4,4,4,4,4,4,4
"389",4101,-265.273684210526,4244,12.7894736842105,-106.915789473684,3935,-303.842105263158,4058,3732,26.5263157894737,-210.915789473684,4139,3764,-115.526315789474,40,0,1539,1735,0,4,4,4,4,4,4,4,4,4,4,4,4,4,4,4,4
"390",4108,-277.063157894737,4243,11.7578947368421,-103.326315789474,3932,-301.789473684211,4065,3730,26.5263157894737,-205.778947368421,4138,3768,-115.010526315789,41,0,1539,1739,0,4,4,4,4,4,4,4,4,4,4,4,4,4,4,4,4
"391",4106,-320.136842105263,4249,0.484210526315789,-109.484210526316,3896,-299.736842105263,4052,3727,6.01052631578947,-209.884210526316,4120,3770,-135.526315789474,42,0,1539,1739,0,4,4,4,4,4,4,4,4,4,4,4,4,4,4,4,4
"392",4106,-344.242105263158,4247,-1.56842105263158,-114.094736842105,3884,-316.147368421053,4051,3726,-0.136842105263158,-212.452631578947,4108,3768,-149.884210526316,43,0,1539,1739,0,4,4,4,4,4,4,4,4,4,4,4,4,4,4,4,4
"393",4110,-341.684210526316,4254,4.07368421052632,-108.968421052632,3902,-322.810526315789,4061,3732,12.1684210526316,-204.757894736842,4117,3770,-142.705263157895,44,0,1539,1735,0,4,4,4,4,4,4,4,4,4,4,4,4,4,4,4,4
"394",4105,338.936842105263,4258,-2.08421052631579,-114.094736842105,3909,-317.168421052632,4058,3730,6.01052631578947,-205.778947368421,4118,3772,-140.136842105263,45,0,1539,1739,0,4,4,4,4,4,4,4,4,4,4,4,4,4,4,4,4
"395",4105,327.663157894737,4244,-2.6,-124.863157894737,3911,328.578947368421,4063,3726,-2.18947368421053,-214.505263157895,4114,3770,-141.684210526316,46,0,1543,1739,0,4,4,4,4,4,4,4,4,4,4,4,4,4,4,4,4
"396",4114,330.736842105263,4228,11.2526315789474,-117.168421052632,3920,256.273684210526,4074,3731,8.57894736842105,-206.294736842105,4127,3772,-132.957894736842,47,0,1539,1743,0,4,4,4,4,4,4,4,4,4,4,4,4,4,4,4,4
"397",4121,334.842105263158,4214,24.5789473684211,-108.452631578947,3931,237.810526315789,4071,3734,18.8315789473684,-199.115789473684,4141,3773,-117.578947368421,48,0,1543,1743,0,4,4,4,4,4,4,4,4,4,4,4,4,4,4,4,4
"398",4132,333.810526315789,4202,27.1473684210526,-117.168421052632,3944,256.273684210526,4060,3723,15.7578947368421,-207.831578947368,4137,3773,-111.421052631579,49,0,1543,1743,0,4,4,4,4,4,4,4,4,4,4,4,4,4,4,4,4
"399",4142,336.894736842105,4191,32.7894736842105,-124.863157894737,3957,261.4,4070,3717,19.3473684210526,-208.863157894737,4140,3775,-109.368421052632,50,0,1547,1743,0,4,4,4,4,4,4,4,4,4,4,4,4,4,4,4,4
"400",4149,336.894736842105,4189,41.5052631578947,-123.842105263158,3964,264.989473684211,4086,3722,29.6,-203.726315789474,4150,3777,-105.273684210526,51,0,1543,1739,0,4,4,4,4,4,4,4,4,4,4,4,4,4,4,4,4
"401",4177,328.684210526316,4186,37.9157894736842,-126.915789473684,3970,273.705263157895,4088,3722,30.1157894736842,-208.863157894737,4152,3776,-100.652631578947,52,0,1547,1743,0,4,4,4,4,4,4,4,4,4,4,4,4,4,4,4,4
"402",4209,317.915789473684,4184,28.6842105263158,-134.094736842105,3975,274.221052631579,4080,3723,29.0842105263158,-212.452631578947,4152,3778,-99.6315789473684,53,0,1547,1739,0,4,4,4,4,4,4,4,4,4,4,4,4,4,4,4,4
"403",4209,313.305263157895,4171,29.2,-136.663157894737,3972,273.18947368421,4081,3729,29.6,-204.757894736842,4154,3785,-100.136842105263,54,0,1551,1747,0,4,4,4,4,4,4,4,4,4,4,4,4,4,4,4,4
"404",4206,311.252631578947,4158,33.3052631578947,-137.168421052632,3971,275.757894736842,4089,3732,30.1157894736842,-199.631578947368,4152,3788,-95.5263157894737,55,0,1551,1743,0,4,4,4,4,4,4,4,4,4,4,4,4,4,4,4,4
"405",4217,311.757894736842,4160,29.2,-136.147368421053,3976,278.831578947368,4088,3730,31.1368421052632,-199.115789473684,4151,3787,-92.9578947368421,56,0,1551,1747,0,4,4,4,4,4,4,4,4,4,4,4,4,4,4,4,4
"406",4222,317.4,4169,30.2210526315789,-133.578947368421,3984,289.6,4085,3728,29.6,-199.115789473684,4153,3785,-91.4210526315789,57,0,1555,1747,0,4,4,4,4,4,4,4,4,4,4,4,4,4,4,4,4
"407",4225,310.221052631579,4176,30.2210526315789,-135.631578947368,3979,301.905263157895,4081,3723,18.3157894736842,-206.294736842105,4143,3792,-97.5789473684211,58,0,1551,1751,0,4,4,4,4,4,4,4,4,4,4,4,4,4,4,4,4
"408",4232,301.505263157895,4174,30.2210526315789,-141.789473684211,3973,306.010526315789,4079,3715,9.6,-212.452631578947,4135,3795,-101.168421052632,59,0,1555,1755,0,4,4,4,4,4,4,4,4,4,4,4,4,4,4,4,4
"409",4235,317.915789473684,4176,42.0210526315789,-143.326315789474,3993,302.421052631579,4091,3717,20.3684210526316,-211.936842105263,4147,3793,-86.2947368421053,60,0,1555,1759,0,4,4,4,4,4,4,4,4,4,4,4,4,4,4,4,4
"410",4232,332.273684210526,4181,49.2,-140.768421052632,4010,304.473684210526,4101,3725,31.6526315789474,-208.347368421053,4159,3797,-72.9578947368421,61,0,1555,1763,0,4,4,4,4,4,4,4,4,4,4,4,4,4,4,4,4
"411",4231,315.863157894737,4189,46.1263157894737,-142.810526315789,4005,314.221052631579,4094,3725,27.5473684210526,-211.421052631579,4154,3802,-78.6,62,0,1555,1763,0,4,4,4,4,4,4,4,4,4,4,4,4,4,4,4,4
"412",4229,300.484210526316,4195,43.0421052631579,-144.357894736842,4001,320.368421052632,4088,3723,24.4736842105263,-212.957894736842,4150,3799,-83.7263157894737,63,0,1559,1771,0,4,4,4,4,4,4,4,4,4,4,4,4,4,4,4,4
"413",4231,303.042105263158,4203,45.6105263157895,-142.810526315789,4010,317.810526315789,4092,3727,30.1157894736842,-211.936842105263,4155,3801,-79.1157894736842,64,0,1555,1775,436,4,4,4,4,4,4,4,4,4,4,4,4,4,4,4,4
"414",4238,301.505263157895,4209,50.2210526315789,-142.810526315789,4017,320.368421052632,4091,3726,31.1368421052632,-219.115789473684,4154,3803,-77.0631578947368,65,0,1559,1783,472,4,4,4,4,4,4,4,4,4,4,4,4,4,4,4,4
"415",4246,300.989473684211,4212,57.9157894736842,-143.842105263158,4018,332.168421052632,4089,3726,33.7052631578947,-227.315789473684,4155,3801,-72.4526315789474,66,0,1555,1791,462,4,4,4,4,4,4,4,4,4,4,4,4,4,4,4,4
"416",4250,311.252631578947,4221,64.0736842105263,-143.326315789474,4019,338.831578947368,4092,3732,44.4736842105263,-225.273684210526,4167,3810,-64.2421052631579,67,0,1559,1791,490,4,4,4,4,4,4,4,4,4,4,4,4,4,4,4,4
"417",4247,321.505263157895,4223,64.5789473684211,-142.305263157895,4026,336.778947368421,4094,3732,47.5473684210526,-222.705263157895,4170,3814,-61.1684210526316,68,0,1551,1803,503,4,4,4,4,4,4,4,4,4,4,4,4,4,4,4,4
"418",4237,318.936842105263,4226,60.4842105263158,-146.915789473684,4029,334.221052631579,4088,3729,34.7263157894737,-228.347368421053,4158,3808,-63.2210526315789,69,0,1559,1811,512,4,4,4,4,4,4,4,4,4,4,4,4,4,4,4,4
"419",4233,321.505263157895,4233,62.0210526315789,-149.989473684211,4024,335.242105263158,4085,3728,28.0631578947368,-232.957894736842,4152,3808,-65.2736842105263,70,0,1559,1815,461,4,4,4,4,4,4,4,4,4,4,4,4,4,4,4,4
"420",4236,334.842105263158,4248,69.7157894736842,-146.915789473684,4025,341.4,4088,3729,35.7578947368421,-230.915789473684,4159,3816,-62.7052631578947,71,0,1559,1831,437,4,4,4,4,4,4,4,4,4,4,4,4,4,4,4,4
"421",4238,341.505263157895,4252,67.6631578947368,-142.810526315789,4031,-340.768421052632,4086,3730,39.8631578947368,-231.421052631579,4161,3815,-60.1368421052632,72,0,1563,1839,454,4,4,4,4,4,4,4,4,4,4,4,4,4,4,4,4
"422",4235,344.073684210526,4252,60.9894736842105,-144.863157894737,4029,-340.768421052632,4079,3731,34.2210526315789,-238.6,4158,3812,-61.6842105263158,73,0,1559,1851,481,4,4,4,4,4,4,4,4,4,4,4,4,4,4,4,4
"423",4227,-340.136842105263,4258,58.9368421052632,-149.989473684211,4021,-344.357894736842,4072,3727,29.6,-245.778947368421,4157,3812,-65.2736842105263,74,0,1563,1859,508,4,4,4,4,4,4,4,4,4,4,4,4,4,4,4,4
"424",4213,-339.115789473684,4262,62.5368421052632,-153.073684210526,4019,-337.168421052632,4068,3726,29.0842105263158,-247.315789473684,4154,3807,-62.7052631578947,75,0,1563,1875,498,4,4,4,4,4,4,4,4,4,4,4,4,4,4,4,4
"425",4204,-332.957894736842,4269,71.2526315789474,-150.505263157895,4023,-322.810526315789,4069,3731,32.1684210526316,-246.294736842105,4156,3801,-56.0421052631579,76,0,1567,1879,473,4,4,4,4,4,4,4,4,4,4,4,4,4,4,4,4
"426",4192,-323.726315789474,4279,75.3473684210526,-147.431578947368,4015,-309.989473684211,4065,3737,32.1684210526316,-247.831578947368,4162,3795,-55.0105263157895,77,0,1563,1887,498,4,4,4,4,4,4,4,4,4,4,4,4,4,4,4,4
"427",4175,-326.294736842105,4289,67.6631578947368,-153.073684210526,4004,-306.915789473684,4052,3739,29.0842105263158,-256.547368421053,4158,3793,-59.1157894736842,78,0,1567,1895,508,4,4,4,4,4,4,4,4,4,4,4,4,4,4,4,4
"428",4164,-323.221052631579,4294,66.1263157894737,-156.147368421053,4004,-312.557894736842,4052,3736,35.2421052631579,-263.221052631579,4159,3797,-57.0631578947368,79,0,1567,1891,498,4,4,4,4,4,4,4,4,4,4,4,4,4,4,4,4
"429",4160,-307.831578947368,4305,74.3263157894737,-149.989473684211,4004,-305.378947368421,4054,3742,47.0421052631579,-259.631578947368,4166,3803,-55.0105263157895,80,0,1567,1895,473,4,4,4,4,4,4,4,4,4,4,4,4,4,4,4,4
"430",4151,-304.757894736842,4313,73.3052631578947,-146.4,3991,-294.094736842105,4038,3751,43.9578947368421,-256.042105263158,4162,3803,-62.1894736842105,81,0,1567,1891,498,4,4,4,4,4,4,4,4,4,4,4,4,4,4,4,4
"431",4122,-307.831578947368,4313,64.5789473684211,-151.536842105263,3978,-301.273684210526,4020,3752,33.7052631578947,-259.631578947368,4151,3802,-70.9157894736842,82,0,1567,1883,508,4,4,4,4,4,4,4,4,4,4,4,4,4,4,4,4
"432",4093,-296.547368421053,4310,62.0210526315789,-153.578947368421,3972,-307.947368421053,4012,3746,32.1684210526316,-260.652631578947,4150,3802,-75.0105263157895,83,0,1567,1875,498,4,4,4,4,4,4,4,4,4,4,4,4,4,4,4,4
"433",4095,-279.115789473684,4311,75.3473684210526,-146.915789473684,3974,-295.126315789474,4011,3747,35.2421052631579,-258.6,4155,3803,-69.8842105263158,84,0,1563,1875,473,4,4,4,4,4,4,4,4,4,4,4,4,4,4,4,4
"434",4106,-265.273684210526,4313,93.3052631578947,-141.789473684211,3973,-279.221052631579,4007,3752,36.2736842105263,-257.063157894737,4156,3811,-59.1157894736842,85,0,1571,1863,498,4,4,4,4,4,4,4,4,4,4,4,4,4,4,4,4
"435",4097,-260.652631578947,4303,93.8105263157895,-144.357894736842,3957,-276.147368421053,3990,3755,30.6315789473684,-251.421052631579,4148,3817,-62.7052631578947,86,0,1563,1855,508,4,4,4,4,4,4,4,4,4,4,4,4,4,4,4,4
"436",4087,-267.831578947368,4295,78.9368421052632,-148.968421052632,3941,-274.610526315789,3966,3752,16.7789473684211,-252.957894736842,4135,3815,-80.1368421052632,87,0,1567,1847,498,4,4,4,4,4,4,4,4,4,4,4,4,4,4,4,4
"437",4087,-268.863157894737,4296,74.3263157894737,-149.989473684211,3938,-266.4,3948,3747,11.6526315789474,-261.168421052632,4134,3810,-84.7578947368421,88,0,1567,1831,473,4,4,4,4,4,4,4,4,4,4,4,4,4,4,4,4
"438",4083,-261.684210526316,4299,78.4315789473684,-149.484210526316,3935,-258.715789473684,3937,3745,15.2421052631579,-262.18947368421,4133,3808,-82.1894736842105,89,0,1563,1815,498,4,4,4,4,4,4,4,4,4,4,4,4,4,4,4,4
"439",4076,-257.578947368421,4296,76.8947368421053,-152.042105263158,3927,-253.578947368421,3927,3746,14.7263157894737,-259.115789473684,4123,3809,-89.8842105263158,90,0,1563,1799,508,4,4,4,4,4,4,4,4,4,4,4,4,4,4,4,4
"440",4080,-249.368421052632,4297,79.9684210526316,-154.094736842105,3928,-248.452631578947,3922,3746,11.6526315789474,-261.684210526316,4122,3810,-91.9368421052632,91,0,1567,1783,498,4,4,4,4,4,4,4,4,4,4,4,4,4,4,4,4
"441",4084,-236.042105263158,4297,89.7157894736842,-151.021052631579,3939,-238.715789473684,3925,3745,14.2210526315789,-263.221052631579,4129,3813,-86.2947368421053,92,0,1559,1771,473,4,4,4,4,4,4,4,4,4,4,4,4,4,4,4,4
"442",4079,-229.368421052632,4295,93.3052631578947,-151.021052631579,3943,-229.484210526316,3927,3741,18.3157894736842,-263.726315789474,4131,3814,-86.8105263157895,93,0,1555,1763,498,4,4,4,4,4,4,4,4,4,4,4,4,4,4,4,4
"443",4073,-220.136842105263,4298,94.8421052631579,-158.2,3939,-225.894736842105,3920,3737,20.3684210526316,-266.810526315789,4135,3812,-88.3473684210526,94,0,1563,1755,508,4,4,4,4,4,4,4,4,4,4,4,4,4,4,4,4
"444",4078,-201.684210526316,4309,109.715789473684,-157.168421052632,3946,-217.684210526316,3913,3741,28.0631578947368,-263.221052631579,4147,3814,-79.1157894736842,95,0,1555,1751,498,4,4,4,4,4,4,4,4,4,4,4,4,4,4,4,4
"445",4083,-189.884210526316,4318,127.663157894737,-151.536842105263,3958,-202.810526315789,3916,3746,42.4210526315789,-258.6,4156,3819,-69.3684210526316,96,0,1559,1743,473,4,4,4,4,4,4,4,4,4,4,4,4,4,4,4,4
"446",4079,-191.421052631579,4321,127.663157894737,-158.2,3953,-194.610526315789,3911,3741,47.0421052631579,-260.652631578947,4156,3816,-74.5052631578947,97,0,1555,1739,498,4,4,4,4,4,4,4,4,4,4,4,4,4,4,4,4
"447",4077,-195.010526315789,4332,112.789473684211,-165.894736842105,3943,-196.147368421053,3896,3736,36.7789473684211,-264.757894736842,4150,3814,-88.3473684210526,98,0,1555,1739,508,4,4,4,4,4,4,4,4,4,4,4,4,4,4,4,4
"448",4075,-188.347368421053,4346,112.273684210526,-160.252631578947,3940,-191.536842105263,3890,3742,33.1894736842105,-259.115789473684,4146,3816,-93.9894736842105,99,0,1555,1735,498,4,4,4,4,4,4,4,4,4,4,4,4,4,4,4,4
"449",4066,-184.242105263158,4364,123.557894736842,-154.094736842105,3933,-181.273684210526,3888,3745,36.2736842105263,-261.168421052632,4143,3815,-97.0631578947368,100,0,1555,1735,473,4,4,4,4,4,4,4,4,4,4,4,4,4,4,4,4
"450",4055,-192.452631578947,4378,119.452631578947,-154.610526315789,3924,-180.768421052632,3880,3739,32.1684210526316,-272.957894736842,4138,3813,-107.831578947368,101,0,1555,1739,498,4,4,4,4,4,4,4,4,4,4,4,4,4,4,4,4
"451",4048,-199.631578947368,4384,99.9684210526316,-156.147368421053,3919,-184.357894736842,3868,3741,26.5263157894737,-272.452631578947,4135,3813,-118.6,102,0,1555,1735,508,4,4,4,4,4,4,4,4,4,4,4,4,4,4,4,4
"452",4043,-200.136842105263,4381,88.6842105263158,-155.631578947368,3915,-183.326315789474,3857,3746,20.8842105263158,-265.778947368421,4129,3814,-125.778947368421,103,0,1551,1739,498,4,4,4,4,4,4,4,4,4,4,4,4,4,4,4,4
"453",4036,-201.168421052632,4382,90.2210526315789,-158.2,3909,-182.305263157895,3850,3743,13.7052631578947,-271.936842105263,4123,3814,-130.915789473684,104,0,1555,1739,473,4,4,4,4,4,4,4,4,4,4,4,4,4,4,4,4
"454",4029,-201.168421052632,4392,92.7894736842105,-160.252631578947,3903,-186.915789473684,3832,3738,11.6526315789474,-280.136842105263,4118,3812,-136.042105263158,105,0,1555,1747,498,4,4,4,4,4,4,4,4,4,4,4,4,4,4,4,4
"455",4025,-198.6,4399,93.3052631578947,-158.2,3899,-189.989473684211,3798,3739,7.54736842105263,-278.6,4117,3808,-145.273684210526,106,0,1559,1747,508,4,4,4,4,4,4,4,4,4,4,4,4,4,4,4,4
"456",4016,-199.631578947368,4407,89.2,-154.610526315789,3901,-187.431578947368,3780,3743,2.93684210526316,-277.578947368421,4118,3810,-149.884210526316,107,0,1551,1751,498,4,4,4,4,4,4,4,4,4,4,4,4,4,4,4,4
"457",4005,-198.094736842105,4411,92.7894736842105,-151.536842105263,3909,-186.915789473684,3792,3745,10.1157894736842,-277.063157894737,4122,3815,-142.189473684211,108,0,1555,1751,473,4,4,4,4,4,4,4,4,4,4,4,4,4,4,4,4
"458",4001,-193.473684210526,4418,102.021052631579,-150.505263157895,3910,-189.484210526316,3801,3746,15.7578947368421,-275.526315789474,4121,3814,-137.578947368421,109,0,1551,1759,498,4,4,4,4,4,4,4,4,4,4,4,4,4,4,4,4
"459",3998,-190.915789473684,4425,103.557894736842,-148.968421052632,3903,-189.484210526316,3799,3745,9.08421052631579,-277.063157894737,4119,3812,-145.778947368421,110,0,1555,1763,508,4,4,4,4,4,4,4,4,4,4,4,4,4,4,4,4
"460",3990,-196.042105263158,4432,94.8421052631579,-152.042105263158,3895,-186.915789473684,3794,3745,1.90526315789474,-277.578947368421,4117,3815,-152.452631578947,111,0,1555,1763,498,4,4,4,4,4,4,4,4,4,4,4,4,4,4,4,4
"461",3988,-193.989473684211,4437,89.2,-153.578947368421,3895,-184.863157894737,3790,3746,2.93684210526316,-276.042105263158,4115,3814,-150.4,112,0,1555,1771,473,4,4,4,4,4,4,4,4,4,4,4,4,4,4,4,4
"462",3989,-185.273684210526,4439,92.7894736842105,-148.452631578947,3898,-185.378947368421,3794,3747,4.98947368421053,-274.505263157895,4118,3813,-147.831578947368,113,0,1555,1767,498,4,4,4,4,4,4,4,4,4,4,4,4,4,4,4,4
"463",3976,-188.347368421053,4443,93.8105263157895,-144.357894736842,3895,-187.947368421053,3796,3743,0.884210526315789,-276.547368421053,4118,3817,-149.884210526316,114,0,1551,1775,508,4,4,4,4,4,4,4,4,4,4,4,4,4,4,4,4
"464",3965,-196.042105263158,4445,90.7368421052632,-147.431578947368,3892,-188.452631578947,3793,3737,-3.72631578947368,-279.115789473684,4110,3817,-154.505263157895,115,0,1559,1775,498,4,4,4,4,4,4,4,4,4,4,4,4,4,4,4,4
"465",3968,-189.884210526316,4446,93.8105263157895,-146.915789473684,3894,-186.915789473684,3794,3736,-4.2421052631579,-278.094736842105,4107,3816,-153.989473684211,116,0,1551,1771,473,4,4,4,4,4,4,4,4,4,4,4,4,4,4,4,4
"466",3969,-178.6,4446,106.631578947368,-140.768421052632,3897,-187.431578947368,3805,3739,2.93684210526316,-276.547368421053,4118,3816,-145.273684210526,117,0,1555,1779,498,4,4,4,4,4,4,4,4,4,4,4,4,4,4,4,4
"467",3961,-178.094736842105,4447,111.757894736842,-143.842105263158,3897,-189.484210526316,3814,3742,11.6526315789474,-276.042105263158,4126,3818,-136.042105263158,118,0,1555,1775,508,4,4,4,4,4,4,4,4,4,4,4,4,4,4,4,4
"468",3955,-178.6,4444,108.168421052632,-149.989473684211,3896,-191.021052631579,3817,3742,13.7052631578947,-275.010526315789,4124,3817,-136.042105263158,119,0,1555,1779,498,4,4,4,4,4,4,4,4,4,4,4,4,4,4,4,4
"469",3959,-175.010526315789,4448,108.684210526316,-149.989473684211,3896,-189.989473684211,3816,3744,11.1368421052632,-273.989473684211,4121,3816,-143.726315789474,120,0,1551,1775,473,4,4,4,4,4,4,4,4,4,4,4,4,4,4,4,4
"470",3964,-177.063157894737,4454,109.2,-147.947368421053,3895,-184.357894736842,3813,3747,12.1684210526316,-269.368421052632,4121,3818,-146.294736842105,121,0,1555,1779,498,4,4,4,4,4,4,4,4,4,4,4,4,4,4,4,4
"471",3961,-182.705263157895,4453,107.147368421053,-146.915789473684,3894,-181.273684210526,3814,3751,14.2210526315789,-261.168421052632,4123,3820,-143.221052631579,122,0,1555,1775,508,4,4,4,4,4,4,4,4,4,4,4,4,4,4,4,4
"472",3957,-184.242105263158,4445,106.631578947368,-147.947368421053,3895,-186.915789473684,3816,3750,15.2421052631579,-260.136842105263,4124,3821,-141.168421052632,123,0,1551,1779,498,4,4,4,4,4,4,4,4,4,4,4,4,4,4,4,4
"473",3957,-179.631578947368,4444,112.789473684211,-155.126315789474,3896,-188.968421052632,3818,3746,18.8315789473684,-269.368421052632,4127,3820,-137.578947368421,124,0,1555,1775,473,4,4,4,4,4,4,4,4,4,4,4,4,4,4,4,4
"474",3958,-177.063157894737,4448,119.968421052632,-163.326315789474,3896,-186.915789473684,3821,3744,16.2736842105263,-276.042105263158,4126,3816,-135.010526315789,125,0,1551,1771,498,4,4,4,4,4,4,4,4,4,4,4,4,4,4,4,4
"475",3959,-175.526315789474,4448,124.073684210526,-165.894736842105,3898,-188.452631578947,3827,3746,17.8105263157895,-274.505263157895,4128,3816,-135.010526315789,126,0,1555,1771,508,4,4,4,4,4,4,4,4,4,4,4,4,4,4,4,4
"476",3963,-176.547368421053,4452,124.578947368421,-163.842105263158,3899,-187.431578947368,3831,3747,30.6315789473684,-275.010526315789,4136,3823,-132.957894736842,127,0,1551,1775,498,4,4,4,4,4,4,4,4,4,4,4,4,4,4,4,4
"477",3962,-180.136842105263,4454,124.578947368421,-162.810526315789,3895,-187.431578947368,3828,3745,29.0842105263158,-277.063157894737,4134,3824,-135.010526315789,128,0,1555,1771,473,4,4,4,4,4,4,4,4,4,4,4,4,4,4,4,4
"478",3957,-181.684210526316,4456,122.021052631579,-169.989473684211,3892,-194.094736842105,3823,3743,13.7052631578947,-279.115789473684,4123,3818,-141.684210526316,0,0,1555,1771,436,4,4,4,4,4,4,4,4,4,4,4,4,4,4,4,4
"479",3958,-180.136842105263,4456,125.610526315789,-180.252631578947,3891,-197.684210526316,3822,3739,10.6315789473684,-277.578947368421,4120,3817,-145.273684210526,1,0,1555,1771,472,4,4,4,4,4,4,4,4,4,4,4,4,4,4,4,4
"480",3959,-179.631578947368,4459,131.757894736842,-183.326315789474,3886,-194.610526315789,3821,3737,15.7578947368421,-280.652631578947,4123,3817,-146.810526315789,2,0,1551,1771,468,4,4,4,4,4,4,4,4,4,4,4,4,4,4,4,4
"481",3951,-182.189473684211,4459,129.715789473684,-183.842105263158,3876,-195.631578947368,3817,3737,13.1894736842105,-287.315789473684,4114,3813,-151.936842105263,3,0,1555,1771,490,4,4,4,4,4,4,4,4,4,4,4,4,4,4,4,4
"482",3943,-184.757894736842,4459,130.736842105263,-188.968421052632,3874,-198.2,3815,3738,10.6315789473684,-284.757894736842,4106,3812,-156.042105263158,4,0,1555,1771,503,4,4,4,4,4,4,4,4,4,4,4,4,4,4,4,4
"483",3943,-184.757894736842,4463,137.4,-190.505263157895,3878,-195.631578947368,3814,3741,11.6526315789474,-277.578947368421,4107,3817,-157.578947368421,5,0,1555,1771,512,4,4,4,4,4,4,4,4,4,4,4,4,4,4,4,4
"484",3944,-182.189473684211,4465,139.452631578947,-186.4,3879,-195.126315789474,3823,3740,11.6526315789474,-278.6,4108,3817,-155.010526315789,6,0,1555,1771,463,4,4,4,4,4,4,4,4,4,4,4,4,4,4,4,4
"485",3944,-182.705263157895,4471,143.557894736842,-187.947368421053,3879,-198.715789473684,3830,3738,12.1684210526316,-280.652631578947,4107,3814,-150.4,7,0,1555,1771,437,4,4,4,4,4,4,4,4,4,4,4,4,4,4,4,4
"486",3949,-182.189473684211,4477,153.305263157895,-190.505263157895,3882,-200.252631578947,3831,3741,13.7052631578947,-277.063157894737,4116,3814,-148.347368421053,8,0,1555,1767,454,4,4,4,4,4,4,4,4,4,4,4,4,4,4,4,4
"487",3951,-178.094736842105,4478,156.894736842105,-186.4,3884,-198.2,3830,3744,17.8105263157895,-276.042105263158,4124,3815,-148.347368421053,9,0,1555,1767,482,4,4,4,4,4,4,4,4,4,4,4,4,4,4,4,4
"488",3944,-180.652631578947,4475,153.305263157895,-186.915789473684,3881,-197.684210526316,3831,3739,18.3157894736842,-278.6,4121,3814,-149.368421052632,10,0,1555,1767,508,4,4,4,4,4,4,4,4,4,4,4,4,4,4,4,4
"489",3940,-193.989473684211,4475,151.757894736842,-194.610526315789,3877,-199.736842105263,3830,3736,14.2210526315789,-280.136842105263,4117,3813,-151.936842105263,11,0,1555,1763,497,4,4,4,4,4,4,4,4,4,4,4,4,4,4,4,4
"490",3944,-194.505263157895,4475,153.810526315789,-198.2,3879,-199.736842105263,3832,3739,19.8631578947368,-278.6,4123,3813,-149.884210526316,12,0,1555,1763,473,4,4,4,4,4,4,4,4,4,4,4,4,4,4,4,4
"491",3952,-188.863157894737,4481,159.452631578947,-194.610526315789,3881,-198.715789473684,3836,3741,30.1157894736842,-276.547368421053,4131,3814,-145.778947368421,13,0,1555,1767,497,4,4,4,4,4,4,4,4,4,4,4,4,4,4,4,4
"492",3961,-192.452631578947,4485,160.484210526316,-197.168421052632,3877,-203.326315789474,3831,3738,30.1157894736842,-279.115789473684,4129,3813,-147.831578947368,14,0,1559,1771,508,4,4,4,4,4,4,4,4,4,4,4,4,4,4,4,4
"493",3959,-196.042105263158,4484,156.378947368421,-201.789473684211,3876,-207.947368421053,3833,3736,27.0421052631579,-280.136842105263,4121,3813,-151.421052631579,15,0,1555,1763,497,4,4,4,4,4,4,4,4,4,4,4,4,4,4,4,4
"494",3955,-192.957894736842,4486,160.989473684211,-199.736842105263,3878,-201.789473684211,3844,3743,30.6315789473684,-277.063157894737,4125,3815,-151.421052631579,16,0,1551,1767,0,4,4,4,4,4,4,4,4,4,4,4,4,4,4,4,4
"495",3957,-195.010526315789,4494,169.715789473684,-196.147368421053,3877,-195.126315789474,3848,3748,32.1684210526316,-274.505263157895,4132,3818,-144.757894736842,17,0,1551,1767,0,4,4,4,4,4,4,4,4,4,4,4,4,4,4,4,4
"496",3961,-198.094736842105,4499,171.252631578947,-196.147368421053,3876,-196.147368421053,3844,3743,28.5789473684211,-275.526315789474,4127,3818,-142.705263157895,18,0,1559,1767,0,4,4,4,4,4,4,4,4,4,4,4,4,4,4,4,4
"497",3958,-194.505263157895,4494,171.757894736842,-201.789473684211,3879,-197.684210526316,3845,3737,30.1157894736842,-278.094736842105,4127,3815,-146.294736842105,19,0,1551,1763,0,4,4,4,4,4,4,4,4,4,4,4,4,4,4,4,4
"498",3949,-199.115789473684,4492,166.631578947368,-209.989473684211,3870,-201.273684210526,3844,3737,33.1894736842105,-282.705263157895,4128,3814,-148.863157894737,20,0,1555,1767,0,4,4,4,4,4,4,4,4,4,4,4,4,4,4,4,4
"499",3956,-188.863157894737,4506,179.452631578947,-211.021052631579,3878,-197.168421052632,3857,3718,40.3684210526316,-279.631578947368,4138,3814,-138.094736842105,25,0,1555,1767,0,4,4,4,4,4,4,4,4,4,4,4,4,4,4,4,4
"500",3952,-196.042105263158,4505,172.789473684211,-210.505263157895,3869,-195.126315789474,3847,3714,29.6,-281.684210526316,4130,3815,-145.778947368421,26,0,1551,1771,0,4,4,4,4,4,4,4,4,4,4,4,4,4,4,4,4
"501",3952,-203.221052631579,4507,172.273684210526,-211.536842105263,3865,-196.663157894737,3846,3713,20.8842105263158,-287.315789473684,4125,3815,-149.884210526316,27,0,1555,1771,0,4,4,4,4,4,4,4,4,4,4,4,4,4,4,4,4
"502",3947,-210.4,4507,174.326315789474,-212.557894736842,3860,-194.610526315789,3846,3712,14.7263157894737,-291.421052631579,4119,3816,-161.168421052632,28,0,1551,1767,0,4,4,4,4,4,4,4,4,4,4,4,4,4,4,4,4
"503",3946,-213.473684210526,4506,176.378947368421,-212.042105263158,3848,-188.452631578947,3843,3711,11.6526315789474,-288.863157894737,4113,3817,-169.368421052632,29,0,1555,1775,0,4,4,4,4,4,4,4,4,4,4,4,4,4,4,4,4
"504",3952,-209.884210526316,4506,183.557894736842,-211.021052631579,3850,-185.894736842105,3845,3708,11.6526315789474,-283.221052631579,4114,3816,-163.726315789474,30,0,1555,1775,0,4,4,4,4,4,4,4,4,4,4,4,4,4,4,4,4
"505",3948,-208.347368421053,4505,187.147368421053,-211.021052631579,3863,-187.431578947368,3848,3706,13.1894736842105,-285.778947368421,4121,3816,-158.6,31,0,1559,1775,0,4,4,4,4,4,4,4,4,4,4,4,4,4,4,4,4
"506",3942,-211.421052631579,4503,186.631578947368,-212.557894736842,3862,-189.484210526316,3847,3710,12.1684210526316,-290.4,4122,3816,-162.705263157895,32,0,1555,1775,0,4,4,4,4,4,4,4,4,4,4,4,4,4,4,4,4
"507",3947,-212.452631578947,4505,189.2,-213.578947368421,3854,-187.947368421053,3849,3715,12.6842105263158,-282.18947368421,4119,3818,-161.684210526316,33,0,1551,1779,0,4,4,4,4,4,4,4,4,4,4,4,4,4,4,4,4
"508",3947,-212.452631578947,4507,191.252631578947,-215.631578947368,3852,-187.947368421053,3849,3715,14.7263157894737,-274.505263157895,4121,3816,-159.631578947368,34,0,1559,1775,0,4,4,4,4,4,4,4,4,4,4,4,4,4,4,4,4
"509",3942,-213.989473684211,4505,187.663157894737,-216.663157894737,3849,-188.968421052632,3844,3714,15.7578947368421,-277.578947368421,4120,3814,-164.757894736842,35,0,1551,1775,0,4,4,4,4,4,4,4,4,4,4,4,4,4,4,4,4
"510",3944,-222.189473684211,4504,180.484210526316,-217.168421052632,3846,-190.505263157895,3837,3715,14.7263157894737,-276.042105263158,4117,3815,-167.831578947368,36,0,1555,1779,0,4,4,4,4,4,4,4,4,4,4,4,4,4,4,4,4
"511",3936,-236.547368421053,4505,168.168421052632,-224.863157894737,3835,-195.631578947368,3826,3717,10.6315789473684,-276.042105263158,4110,3812,-175.010526315789,37,0,1555,1775,0,4,4,4,4,4,4,4,4,4,4,4,4,4,4,4,4
"512",3924,-248.347368421053,4501,159.452631578947,-232.042105263158,3817,-199.736842105263,3813,3714,1.4,-288.863157894737,4094,3803,-192.452631578947,38,0,1555,1775,0,4,4,4,4,4,4,4,4,4,4,4,4,4,4,4,4
"513",3930,-248.347368421053,4500,167.663157894737,-231.021052631579,3817,-192.042105263158,3813,3711,-4.2421052631579,-295.010526315789,4090,3798,-197.578947368421,39,0,1555,1775,0,4,4,4,4,4,4,4,4,4,4,4,4,4,4,4,4
"514",3945,-241.168421052632,4504,182.536842105263,-227.431578947368,3833,-179.221052631579,3823,3716,-2.18947368421053,-285.778947368421,4103,3808,-184.757894736842,40,0,1555,1775,0,4,4,4,4,4,4,4,4,4,4,4,4,4,4,4,4
"515",3952,-236.042105263158,4506,190.736842105263,-224.863157894737,3841,-171.021052631579,3831,3722,4.98947368421053,-277.063157894737,4108,3816,-178.6,41,0,1551,1775,0,4,4,4,4,4,4,4,4,4,4,4,4,4,4,4,4
"516",3955,-236.042105263158,4506,199.452631578947,-219.736842105263,3843,-162.810526315789,3834,3720,13.1894736842105,-277.063157894737,4107,3817,-180.652631578947,42,0,1555,1771,0,4,4,4,4,4,4,4,4,4,4,4,4,4,4,4,4
"517",3958,-244.757894736842,4508,203.557894736842,-216.147368421053,3849,-156.147368421053,3835,3716,13.7052631578947,-279.631578947368,4113,3816,-176.547368421053,43,0,1555,1771,0,4,4,4,4,4,4,4,4,4,4,4,4,4,4,4,4
"518",3956,-267.831578947368,4509,193.305263157895,-218.715789473684,3848,-155.631578947368,3832,3716,2.93684210526316,-277.578947368421,4109,3819,-178.094736842105,44,0,1555,1771,0,4,4,4,4,4,4,4,4,4,4,4,4,4,4,4,4
"519",3956,-288.863157894737,4500,183.557894736842,-223.326315789474,3837,-161.273684210526,3823,3714,-8.34736842105263,-275.526315789474,4096,3819,-191.936842105263,45,0,1551,1767,0,4,4,4,4,4,4,4,4,4,4,4,4,4,4,4,4
"520",3955,-293.989473684211,4490,183.557894736842,-227.947368421053,3829,-168.968421052632,3814,3706,-18.0947368421053,-284.242105263158,4090,3810,-201.684210526316,46,0,1555,1771,0,4,4,4,4,4,4,4,4,4,4,4,4,4,4,4,4
"521",3953,-290.4,4490,192.273684210526,-232.042105263158,3831,-172.557894736842,3821,3700,-19.1157894736842,-292.452631578947,4090,3809,-199.631578947368,47,0,1551,1767,0,4,4,4,4,4,4,4,4,4,4,4,4,4,4,4,4
"522",3957,-289.368421052632,4494,203.557894736842,-230.505263157895,3836,-167.431578947368,3830,3704,-8.34736842105263,-289.368421052632,4098,3816,-193.473684210526,48,0,1551,1771,0,4,4,4,4,4,4,4,4,4,4,4,4,4,4,4,4
"523",3965,-291.936842105263,4491,198.431578947368,-227.947368421053,3833,-164.863157894737,3828,3705,-1.16842105263158,-287.315789473684,4104,3814,-192.452631578947,49,0,1555,1763,0,4,4,4,4,4,4,4,4,4,4,4,4,4,4,4,4
"524",3969,-293.989473684211,4488,189.2,-229.989473684211,3835,-168.452631578947,3825,3699,-4.2421052631579,-290.915789473684,4096,3806,-196.547368421053,50,0,1551,1771,0,4,4,4,4,4,4,4,4,4,4,4,4,4,4,4,4
"525",3975,-293.473684210526,4493,197.915789473684,-230.505263157895,3846,-168.452631578947,3831,3698,-4.2421052631579,-290.915789473684,4094,3809,-191.936842105263,51,0,1555,1763,0,4,4,4,4,4,4,4,4,4,4,4,4,4,4,4,4
"526",3982,-291.936842105263,4492,210.221052631579,-228.452631578947,3851,-165.378947368421,3842,3705,-1.16842105263158,-289.368421052632,4104,3814,-182.705263157895,52,0,1555,1767,0,4,4,4,4,4,4,4,4,4,4,4,4,4,4,4,4
"527",3982,-296.547368421053,4491,208.168421052632,-234.610526315789,3841,-164.863157894737,3839,3709,-6.29473684210526,-289.368421052632,4101,3813,-186.810526315789,53,0,1555,1767,0,4,4,4,4,4,4,4,4,4,4,4,4,4,4,4,4
"528",3975,-304.242105263158,4491,204.073684210526,-242.810526315789,3833,-166.915789473684,3832,3706,-16.0421052631579,-289.368421052632,4090,3813,-197.063157894737,54,0,1551,1767,0,4,4,4,4,4,4,4,4,4,4,4,4,4,4,4,4
"529",3973,-314.505263157895,4493,196.894736842105,-242.305263157895,3831,-169.484210526316,3824,3705,-20.1368421052632,-292.957894736842,4086,3814,-200.652631578947,55,0,1559,1767,0,4,4,4,4,4,4,4,4,4,4,4,4,4,4,4,4
"530",3975,-319.115789473684,4492,191.252631578947,-241.273684210526,3830,-171.536842105263,3824,3708,-11.4210526315789,-287.831578947368,4090,3813,-198.094736842105,56,0,1551,1767,0,4,4,4,4,4,4,4,4,4,4,4,4,4,4,4,4
"531",3974,-313.473684210526,4492,203.042105263158,-242.810526315789,3836,-173.578947368421,3837,3711,-1.68421052631579,-278.6,4101,3813,-190.4,57,0,1555,1771,0,4,4,4,4,4,4,4,4,4,4,4,4,4,4,4,4
"532",3969,-312.957894736842,4490,213.810526315789,-241.789473684211,3843,-177.684210526316,3848,3710,0.368421052631579,-282.18947368421,4104,3813,-187.831578947368,58,0,1559,1763,0,4,4,4,4,4,4,4,4,4,4,4,4,4,4,4,4
"533",3967,-320.652631578947,4490,208.684210526316,-242.810526315789,3836,-181.273684210526,3838,3705,-3.72631578947368,-291.421052631579,4094,3807,-196.042105263158,59,0,1555,1771,0,4,4,4,4,4,4,4,4,4,4,4,4,4,4,4,4
"534",3965,-326.810526315789,4486,200.484210526316,-245.378947368421,3828,-180.768421052632,3827,3704,-10.9157894736842,-290.915789473684,4087,3808,-201.168421052632,60,0,1559,1771,0,4,4,4,4,4,4,4,4,4,4,4,4,4,4,4,4
"535",3961,-328.347368421053,4482,202.536842105263,-245.894736842105,3829,-179.736842105263,3830,3709,-10.4,-289.884210526316,4087,3815,-196.547368421053,61,0,1559,1767,0,4,4,4,4,4,4,4,4,4,4,4,4,4,4,4,4
"536",3968,-327.831578947368,4486,209.715789473684,-245.894736842105,3829,-180.252631578947,3830,3716,-3.72631578947368,-288.863157894737,4089,3815,-198.6,62,0,1555,1771,0,4,4,4,4,4,4,4,4,4,4,4,4,4,4,4,4
"537",3977,-321.684210526316,4492,221.505263157895,-240.768421052632,3833,-180.768421052632,3835,3717,-1.16842105263158,-283.726315789474,4091,3813,-198.6,63,0,1555,1775,0,4,4,4,4,4,4,4,4,4,4,4,4,4,4,4,4
"538",3978,-317.063157894737,4492,232.273684210526,-234.094736842105,3848,-179.736842105263,3848,3714,0.368421052631579,-284.757894736842,4097,3815,-186.294736842105,64,0,1563,1771,436,4,4,4,4,4,4,4,4,4,4,4,4,4,4,4,4
"539",3975,-320.136842105263,4488,231.757894736842,-236.663157894737,3848,-179.221052631579,3846,3714,1.90526315789474,-289.368421052632,4100,3814,-183.221052631579,65,0,1555,1775,472,4,4,4,4,4,4,4,4,4,4,4,4,4,4,4,4
"540",3976,-327.315789473684,4488,227.663157894737,-242.810526315789,3833,-180.768421052632,3830,3716,0.368421052631579,-289.884210526316,4099,3813,-191.936842105263,66,0,1559,1775,468,4,4,4,4,4,4,4,4,4,4,4,4,4,4,4,4
"541",3977,-326.294736842105,4491,231.252631578947,-237.168421052632,3837,-181.273684210526,3835,3716,7.54736842105263,-286.810526315789,4103,3816,-187.315789473684,67,0,1559,1771,490,4,4,4,4,4,4,4,4,4,4,4,4,4,4,4,4
"542",3978,-320.136842105263,4492,236.894736842105,-229.484210526316,3850,-180.252631578947,3850,3715,12.6842105263158,-287.315789473684,4106,3818,-179.115789473684,68,0,1555,1775,503,4,4,4,4,4,4,4,4,4,4,4,4,4,4,4,4
"543",3975,-330.4,4490,229.715789473684,-236.147368421053,3839,-178.2,3843,3716,1.4,-290.915789473684,4096,3818,-190.915789473684,69,0,1559,1771,512,4,4,4,4,4,4,4,4,4,4,4,4,4,4,4,4
"544",3971,342.021052631579,4490,217.4,-244.863157894737,3824,-179.221052631579,3828,3715,-7.83157894736842,-292.452631578947,4086,3817,-202.189473684211,70,0,1559,1775,463,4,4,4,4,4,4,4,4,4,4,4,4,4,4,4,4
"545",3972,339.968421052632,4488,216.894736842105,-243.842105263158,3830,-182.305263157895,3828,3715,-5.77894736842105,-290.915789473684,4086,3814,-201.168421052632,71,0,1559,1771,437,4,4,4,4,4,4,4,4,4,4,4,4,4,4,4,4
"546",3973,344.578947368421,4482,225.610526315789,-244.357894736842,3835,-183.326315789474,3833,3716,-4.7578947368421,-290.915789473684,4088,3814,-200.136842105263,72,0,1555,1779,455,4,4,4,4,4,4,4,4,4,4,4,4,4,4,4,4
"547",3974,343.042105263158,4487,233.305263157895,-246.915789473684,3833,-182.305263157895,3835,3715,-3.72631578947368,-295.526315789474,4090,3814,-198.094736842105,73,0,1563,1771,482,4,4,4,4,4,4,4,4,4,4,4,4,4,4,4,4
"548",3973,334.326315789474,4492,236.378947368421,-246.915789473684,3832,-179.736842105263,3839,3713,-0.136842105263158,-295.526315789474,4093,3812,-193.989473684211,74,0,1555,1771,508,4,4,4,4,4,4,4,4,4,4,4,4,4,4,4,4
"549",3964,317.915789473684,4481,227.147368421053,-252.042105263158,3825,-181.789473684211,3835,3715,-7.31578947368421,-293.473684210526,4087,3810,-199.631578947368,75,0,1555,1775,497,4,4,4,4,4,4,4,4,4,4,4,4,4,4,4,4
"550",3955,304.578947368421,4476,220.484210526316,-260.768421052632,3821,-188.968421052632,3828,3715,-15.5263157894737,-298.6,4077,3806,-208.347368421053,76,0,1555,1771,473,4,4,4,4,4,4,4,4,4,4,4,4,4,4,4,4
"551",3958,297.4,4488,227.147368421053,-260.252631578947,3825,-187.431578947368,3828,3714,-16.0421052631579,-306.810526315789,4076,3806,-212.452631578947,77,0,1559,1771,497,4,4,4,4,4,4,4,4,4,4,4,4,4,4,4,4
"552",3964,283.557894736842,4493,233.305263157895,-255.631578947368,3826,-180.768421052632,3829,3715,-11.4210526315789,-302.18947368421,4083,3807,-211.936842105263,78,0,1555,1771,508,4,4,4,4,4,4,4,4,4,4,4,4,4,4,4,4
"553",3962,266.631578947368,4490,234.842105263158,-255.631578947368,3826,-184.863157894737,3831,3716,-6.81052631578947,-293.989473684211,4086,3809,-205.273684210526,79,0,1555,1775,497,4,4,4,4,4,4,4,4,4,4,4,4,4,4,4,4
"554",3957,260.989473684211,4485,239.452631578947,-257.168421052632,3829,-191.536842105263,3833,3715,-7.31578947368421,-298.6,4084,3812,-203.726315789474,80,0,1555,1771,473,4,4,4,4,4,4,4,4,4,4,4,4,4,4,4,4
"555",3958,262.021052631579,4482,243.042105263158,-257.168421052632,3830,-188.452631578947,3830,3714,-6.29473684210526,-304.242105263158,4081,3814,-210.915789473684,81,0,1555,1771,497,4,4,4,4,4,4,4,4,4,4,4,4,4,4,4,4
"556",3966,263.557894736842,4483,246.126315789474,-257.168421052632,3831,-185.378947368421,3837,3714,-3.72631578947368,-299.631578947368,4085,3815,-205.273684210526,82,0,1555,1771,508,4,4,4,4,4,4,4,4,4,4,4,4,4,4,4,4
"557",3973,267.147368421053,4482,251.252631578947,-256.147368421053,3838,-186.4,3849,3716,-1.68421052631579,-293.473684210526,4094,3815,-191.421052631579,83,0,1555,1771,497,4,4,4,4,4,4,4,4,4,4,4,4,4,4,4,4
"558",3972,261.505263157895,4478,249.715789473684,-257.168421052632,3835,-189.484210526316,3839,3718,-3.22105263157895,-294.505263157895,4091,3816,-201.168421052632,84,0,1551,1771,473,4,4,4,4,4,4,4,4,4,4,4,4,4,4,4,4
"559",3969,255.347368421053,4477,248.684210526316,-260.252631578947,3827,-193.578947368421,3831,3721,-4.7578947368421,-296.547368421053,4083,3817,-212.957894736842,85,0,1559,1771,497,4,4,4,4,4,4,4,4,4,4,4,4,4,4,4,4
"560",3973,265.094736842105,4488,259.968421052632,-259.736842105263,3836,-191.021052631579,3844,3721,-2.18947368421053,-295.010526315789,4089,3817,-200.652631578947,86,0,1555,1767,508,4,4,4,4,4,4,4,4,4,4,4,4,4,4,4,4
"561",3976,273.810526315789,4493,268.684210526316,-256.147368421053,3847,-184.863157894737,3851,3722,0.884210526315789,-291.936842105263,4096,3818,-191.936842105263,87,0,1551,1771,497,4,4,4,4,4,4,4,4,4,4,4,4,4,4,4,4
"562",3977,268.684210526316,4491,264.073684210526,-256.663157894737,3838,-183.326315789474,3846,3724,2.42105263157895,-292.452631578947,4091,3819,-197.063157894737,88,0,1555,1771,473,4,4,4,4,4,4,4,4,4,4,4,4,4,4,4,4
"563",3974,262.021052631579,4488,257.915789473684,-260.768421052632,3831,-187.431578947368,3847,3725,-0.652631578947368,-292.452631578947,4092,3821,-197.578947368421,89,0,1555,1771,497,4,4,4,4,4,4,4,4,4,4,4,4,4,4,4,4
"564",3973,263.557894736842,4490,257.915789473684,-260.252631578947,3842,-190.505263157895,3849,3723,-0.652631578947368,-295.526315789474,4096,3817,-194.505263157895,90,0,1555,1771,508,4,4,4,4,4,4,4,4,4,4,4,4,4,4,4,4
"565",3973,270.221052631579,4492,262.021052631579,-257.168421052632,3850,-184.863157894737,3849,3719,-0.136842105263158,-300.652631578947,4093,3817,-195.010526315789,91,0,1555,1775,497,4,4,4,4,4,4,4,4,4,4,4,4,4,4,4,4
"566",3977,276.894736842105,4491,267.147368421053,-254.094736842105,3844,-181.273684210526,3850,3715,-1.68421052631579,-302.18947368421,4093,3819,-196.042105263158,92,0,1559,1771,473,4,4,4,4,4,4,4,4,4,4,4,4,4,4,4,4
"567",3974,273.305263157895,4491,264.578947368421,-257.684210526316,3834,-189.989473684211,3849,3718,-3.72631578947368,-303.726315789474,4095,3817,-197.578947368421,93,0,1555,1771,497,4,4,4,4,4,4,4,4,4,4,4,4,4,4,4,4
"568",3965,269.715789473684,4489,259.968421052632,-268.968421052632,3834,-199.221052631579,3844,3721,-3.22105263157895,-305.273684210526,4090,3813,-200.136842105263,94,0,1559,1775,508,4,4,4,4,4,4,4,4,4,4,4,4,4,4,4,4
