"","AF3","AF4","F3","F4","F7","F8","FC5","FC6","O1","O2","P7","P8","T7","T8","COUNTER","INTERPOLATED","GYROX","GYROY","RAW_CQ","CQ_CMS","CQ_F7","CQ_T7","CQ_O2","CQ_FC6","CQ_AF4","CQ_F3","CQ_P7","CQ_P8","CQ_F4","CQ_AF3","CQ_FC5","CQ_O1","CQ_T8","CQ_F8","CQ_DRL"
"1",4106,-9.26315789473684,4119,-19.0105263157895,293.705263157895,3632,-13.4736842105263,3858,4199,-109.368421052632,-256.547368421053,3924,3775,229.715789473684,54,0,1559,1771,0,4,4,4,4,4,4,4,4,4,4,4,4,4,4,4,4
"2",4108,-3.10526315789474,4120,-13.8736842105263,294.221052631579,3635,-13.9894736842105,3865,4199,-103.726315789474,-257.063157894737,3927,3775,234.326315789474,55,0,1559,1771,0,4,4,4,4,4,4,4,4,4,4,4,4,4,4,4,4
"3",4107,-2.6,4119,-11.3157894736842,291.652631578947,3634,-15.5263157894737,3863,4199,-104.242105263158,-259.631578947368,3924,3774,233.810526315789,56,0,1559,1767,0,4,4,4,4,4,4,4,4,4,4,4,4,4,4,4,4
"4",4109,-0.0315789473684211,4122,-5.67368421052632,297.294736842105,3634,-12.9578947368421,3867,4199,-98.6,-251.936842105263,3931,3778,238.431578947368,57,0,1555,1775,0,4,4,4,4,4,4,4,4,4,4,4,4,4,4,4,4
"5",4117,7.66315789473684,4126,-0.547368421052632,307.547368421053,3641,-8.86315789473684,3874,4199,-91.4210526315789,-244.757894736842,3943,3782,248.684210526316,58,0,1559,1771,0,4,4,4,4,4,4,4,4,4,4,4,4,4,4,4,4
"6",4113,8.16842105263158,4124,-6.18947368421053,301.4,3639,-12.4526315789474,3870,4199,-95.5263157894737,-252.452631578947,3938,3779,245.094736842105,59,0,1559,1771,0,4,4,4,4,4,4,4,4,4,4,4,4,4,4,4,4
"7",4105,0.989473684210526,4121,-14.9052631578947,288.578947368421,3629,-21.1684210526316,3859,4199,-106.810526315789,-260.652631578947,3924,3771,229.715789473684,60,0,1559,1771,0,4,4,4,4,4,4,4,4,4,4,4,4,4,4,4,4
"8",4105,-5.15789473684211,4122,-19.5157894736842,289.084210526316,3621,-22.1894736842105,3853,4199,-115.010526315789,-258.6,3916,3768,220.484210526316,61,0,1559,1771,0,4,4,4,4,4,4,4,4,4,4,4,4,4,4,4,4
"9",4107,-9.77894736842105,4122,-27.2105263157895,292.684210526316,3612,-20.6526315789474,3848,4199,-120.652631578947,-257.578947368421,3910,3770,216.894736842105,62,0,1559,1771,0,4,4,4,4,4,4,4,4,4,4,4,4,4,4,4,4
"10",4104,-11.3157894736842,4121,-30.8,288.578947368421,3605,-22.7052631578947,3843,4199,-123.221052631579,-258.6,3905,3771,213.810526315789,63,0,1559,1771,0,4,4,4,4,4,4,4,4,4,4,4,4,4,4,4,4
"11",4105,-5.15789473684211,4124,-21.5684210526316,288.578947368421,3610,-19.6315789473684,3850,4199,-118.6,-258.094736842105,3911,3773,218.431578947368,64,0,1559,1767,441,4,4,4,4,4,4,4,4,4,4,4,4,4,4,4,4
"12",4108,-0.0315789473684211,4127,-15.9263157894737,292.684210526316,3614,-13.4736842105263,3861,4199,-115.526315789474,-258.6,3916,3773,222.021052631579,65,0,1559,1771,538,4,4,4,4,4,4,4,4,4,4,4,4,4,4,4,4
"13",4107,-6.69473684210526,4126,-24.6526315789474,291.136842105263,3607,-15.0105263157895,3854,4199,-119.631578947368,-260.136842105263,3911,3770,218.431578947368,66,0,1559,1771,523,4,4,4,4,4,4,4,4,4,4,4,4,4,4,4,4
"14",4107,-14.3894736842105,4124,-28.7473684210526,288.063157894737,3603,-18.0947368421053,3846,4199,-122.705263157895,-261.168421052632,3909,3769,216.378947368421,67,0,1559,1771,548,4,4,4,4,4,4,4,4,4,4,4,4,4,4,4,4
"15",4108,-8.74736842105263,4124,-23.1052631578947,290.631578947368,3607,-15.0105263157895,3852,4199,-119.631578947368,-260.136842105263,3912,3769,219.968421052632,68,0,1559,1767,509,4,4,4,4,4,4,4,4,4,4,4,4,4,4,4,4
"16",4113,-2.08421052631579,4130,-19.0105263157895,294.726315789474,3609,-9.88421052631579,3858,4199,-115.526315789474,-258.6,3916,3772,225.610526315789,69,0,1555,1775,451,4,4,4,4,4,4,4,4,4,4,4,4,4,4,4,4
"17",4113,-7.72631578947368,4135,-24.1368421052632,295.242105263158,3606,-6.29473684210526,3851,4199,-118.094736842105,-259.631578947368,3915,3775,220.484210526316,70,0,1563,1771,445,4,4,4,4,4,4,4,4,4,4,4,4,4,4,4,4
"18",4110,-13.8736842105263,4130,-35.4210526315789,291.136842105263,3596,-8.34736842105263,3839,4199,-129.884210526316,-261.168421052632,3903,3774,206.631578947368,71,0,1555,1771,762,4,4,4,4,4,4,4,4,4,4,4,4,4,4,4,4
"19",4107,-9.26315789473684,4123,-40.5473684210526,288.063157894737,3589,-13.4736842105263,3836,4199,-138.094736842105,-261.168421052632,3893,3769,198.431578947368,72,0,1559,1775,790,4,4,4,4,4,4,4,4,4,4,4,4,4,4,4,4
"20",4108,-0.547368421052632,4124,-34.9052631578947,288.578947368421,3591,-10.4,3839,4199,-133.473684210526,-264.757894736842,3900,3769,202.021052631579,73,0,1559,1771,759,4,4,4,4,4,4,4,4,4,4,4,4,4,4,4,4
"21",4109,-0.547368421052632,4126,-32.8526315789474,289.6,3592,-4.7578947368421,3840,4199,-130.4,-269.884210526316,3904,3773,205.094736842105,74,0,1559,1771,596,4,4,4,4,4,4,4,4,4,4,4,4,4,4,4,4
"22",4108,0.989473684210526,4124,-34.9052631578947,289.6,3587,-3.72631578947368,3835,4199,-133.989473684211,-272.452631578947,3898,3775,203.042105263158,75,0,1555,1771,579,4,4,4,4,4,4,4,4,4,4,4,4,4,4,4,4
"23",4108,8.68421052631579,4127,-31.8315789473684,289.084210526316,3585,-2.70526315789474,3835,4200,-133.989473684211,-274.505263157895,3904,3776,204.578947368421,76,0,1559,1775,580,4,4,4,4,4,4,4,4,4,4,4,4,4,4,4,4
"24",4109,13.3052631578947,4133,-29.7789473684211,288.063157894737,3587,-0.652631578947368,3842,4207,-132.452631578947,-269.368421052632,3911,3778,209.715789473684,77,0,1563,1767,667,4,4,4,4,4,4,4,4,4,4,4,4,4,4,4,4
"25",4109,13.3052631578947,4136,-30.2842105263158,291.136842105263,3587,4.98947368421053,3846,4213,-128.863157894737,-262.705263157895,3909,3783,210.221052631579,78,0,1555,1775,596,4,4,4,4,4,4,4,4,4,4,4,4,4,4,4,4
"26",4109,14.3263157894737,4134,-28.7473684210526,294.221052631579,3587,13.1894736842105,3840,4211,-124.757894736842,-266.810526315789,3909,3783,208.168421052632,79,0,1563,1767,579,4,4,4,4,4,4,4,4,4,4,4,4,4,4,4,4
"27",4108,14.8421052631579,4130,-34.3894736842105,291.136842105263,3586,14.2210526315789,3835,4210,-131.421052631579,-275.010526315789,3909,3777,206.126315789474,80,0,1559,1767,580,4,4,4,4,4,4,4,4,4,4,4,4,4,4,4,4
"28",4107,17.4,4133,-32.8526315789474,288.063157894737,3587,11.6526315789474,3844,4212,-130.915789473684,-273.473684210526,3909,3779,211.757894736842,81,0,1559,1771,667,4,4,4,4,4,4,4,4,4,4,4,4,4,4,4,4
"29",4107,22.5368421052632,4136,-23.1052631578947,290.115789473684,3591,13.1894736842105,3851,4213,-119.631578947368,-270.915789473684,3914,3785,218.936842105263,82,0,1559,1771,596,4,4,4,4,4,4,4,4,4,4,4,4,4,4,4,4
"30",4106,17.4,4135,-27.2105263157895,291.652631578947,3591,13.7052631578947,3843,4213,-124.242105263158,-273.473684210526,3912,3783,216.378947368421,83,0,1563,1771,579,4,4,4,4,4,4,4,4,4,4,4,4,4,4,4,4
"31",4106,8.68421052631579,4135,-35.9263157894737,290.631578947368,3586,11.6526315789474,3838,4215,-132.957894736842,-272.452631578947,3907,3783,211.757894736842,84,0,1559,1767,580,4,4,4,4,4,4,4,4,4,4,4,4,4,4,4,4
"32",4108,6.63157894736842,4137,-31.3157894736842,291.136842105263,3586,11.6526315789474,3844,4216,-126.294736842105,-271.936842105263,3909,3786,214.326315789474,85,0,1563,1767,667,4,4,4,4,4,4,4,4,4,4,4,4,4,4,4,4
"33",4109,7.66315789473684,4135,-27.7263157894737,290.631578947368,3592,12.1684210526316,3844,4216,-125.273684210526,-273.473684210526,3913,3785,213.810526315789,86,0,1563,1767,596,4,4,4,4,4,4,4,4,4,4,4,4,4,4,4,4
"34",4107,3.55789473684211,4134,-35.4210526315789,290.631578947368,3588,11.6526315789474,3834,4217,-135.526315789474,-273.473684210526,3908,3784,205.610526315789,87,0,1559,1771,579,4,4,4,4,4,4,4,4,4,4,4,4,4,4,4,4
"35",4106,-2.6,4137,-40.5473684210526,292.168421052632,3579,11.6526315789474,3830,4216,-137.578947368421,-273.473684210526,3896,3785,199.452631578947,88,0,1559,1771,580,4,4,4,4,4,4,4,4,4,4,4,4,4,4,4,4
"36",4108,0.989473684210526,4137,-38.4947368421053,291.652631578947,3583,11.6526315789474,3834,4215,-133.989473684211,-272.452631578947,3897,3786,204.073684210526,89,0,1559,1771,667,4,4,4,4,4,4,4,4,4,4,4,4,4,4,4,4
"37",4110,11.7578947368421,4137,-32.8526315789474,290.631578947368,3590,11.6526315789474,3836,4218,-131.936842105263,-271.936842105263,3909,3787,210.221052631579,90,0,1563,1771,596,4,4,4,4,4,4,4,4,4,4,4,4,4,4,4,4
"38",4109,13.8105263157895,4137,-32.8526315789474,293.18947368421,3583,12.1684210526316,3834,4221,-132.452631578947,-272.452631578947,3907,3786,209.715789473684,91,0,1559,1771,579,4,4,4,4,4,4,4,4,4,4,4,4,4,4,4,4
"39",4109,6.12631578947368,4137,-39.5157894736842,294.726315789474,3573,11.6526315789474,3829,4219,-137.063157894737,-273.989473684211,3897,3787,203.042105263158,92,0,1559,1771,580,4,4,4,4,4,4,4,4,4,4,4,4,4,4,4,4
"40",4110,6.12631578947368,4137,-42.0842105263158,292.684210526316,3574,12.1684210526316,3821,4217,-140.136842105263,-273.989473684211,3898,3787,199.968421052632,93,0,1555,1771,667,4,4,4,4,4,4,4,4,4,4,4,4,4,4,4,4
"41",4109,12.7894736842105,4138,-40.0315789473684,296.778947368421,3575,15.7578947368421,3819,4222,-139.631578947368,-272.452631578947,3899,3786,203.042105263158,94,0,1559,1775,596,4,4,4,4,4,4,4,4,4,4,4,4,4,4,4,4
"42",4108,12.2736842105263,4141,-39.0105263157895,303.452631578947,3576,16.7789473684211,3819,4229,-139.631578947368,-271.936842105263,3894,3788,204.578947368421,95,0,1559,1771,579,4,4,4,4,4,4,4,4,4,4,4,4,4,4,4,4
"43",4108,7.66315789473684,4141,-40.0315789473684,303.957894736842,3575,16.7789473684211,3816,4230,-142.189473684211,-272.957894736842,3896,3789,199.452631578947,96,0,1555,1775,580,4,4,4,4,4,4,4,4,4,4,4,4,4,4,4,4
"44",4109,5.61052631578947,4139,-46.1894736842105,298.831578947368,3572,16.7789473684211,3814,4228,-145.778947368421,-272.452631578947,3894,3789,191.757894736842,97,0,1559,1771,667,4,4,4,4,4,4,4,4,4,4,4,4,4,4,4,4
"45",4107,3.55789473684211,4138,-52.3368421052632,294.726315789474,3570,9.08421052631579,3814,4229,-153.473684210526,-271.936842105263,3884,3786,187.147368421053,98,0,1555,1771,596,4,4,4,4,4,4,4,4,4,4,4,4,4,4,4,4
"46",4104,-3.10526315789474,4139,-57.9789473684211,292.684210526316,3565,-2.70526315789474,3806,4231,-162.705263157895,-273.473684210526,3877,3786,180.484210526316,99,0,1555,1771,579,4,4,4,4,4,4,4,4,4,4,4,4,4,4,4,4
"47",4105,-5.15789473684211,4138,-64.6526315789474,291.136842105263,3555,-6.29473684210526,3795,4229,-168.863157894737,-274.505263157895,3874,3786,169.715789473684,100,0,1555,1771,580,4,4,4,4,4,4,4,4,4,4,4,4,4,4,4,4
"48",4109,5.09473684210526,4138,-63.6210526315789,292.684210526316,3561,-2.70526315789474,3803,4229,-166.294736842105,-271.936842105263,3875,3786,173.305263157895,101,0,1555,1771,667,4,4,4,4,4,4,4,4,4,4,4,4,4,4,4,4
"49",4109,13.3052631578947,4141,-53.3684210526316,294.726315789474,3574,-0.652631578947368,3817,4231,-155.010526315789,-270.915789473684,3888,3789,188.684210526316,102,0,1559,1771,596,4,4,4,4,4,4,4,4,4,4,4,4,4,4,4,4
"50",4105,2.02105263157895,4139,-55.4210526315789,293.18947368421,3567,-2.18947368421053,3812,4231,-156.547368421053,-273.473684210526,3886,3790,181.505263157895,103,0,1559,1771,579,4,4,4,4,4,4,4,4,4,4,4,4,4,4,4,4
"51",4103,-12.8526315789474,4142,-71.8315789473684,289.6,3552,-1.68421052631579,3796,4229,-172.452631578947,-273.473684210526,3864,3788,158.936842105263,104,0,1559,1771,580,4,4,4,4,4,4,4,4,4,4,4,4,4,4,4,4
"52",4105,-8.24210526315789,4150,-72.8526315789474,290.115789473684,3554,7.04210526315789,3795,4230,-175.010526315789,-271.421052631579,3862,3790,159.452631578947,105,0,1559,1771,667,4,4,4,4,4,4,4,4,4,4,4,4,4,4,4,4
"53",4107,2.02105263157895,4153,-59.5157894736842,292.168421052632,3561,15.2421052631579,3803,4233,-162.189473684211,-271.421052631579,3880,3797,173.305263157895,106,0,1559,1775,596,4,4,4,4,4,4,4,4,4,4,4,4,4,4,4,4
"54",4107,-0.547368421052632,4150,-57.9789473684211,292.684210526316,3558,17.2947368421053,3805,4233,-160.652631578947,-273.473684210526,3881,3798,173.305263157895,107,0,1559,1767,579,4,4,4,4,4,4,4,4,4,4,4,4,4,4,4,4
"55",4104,-9.77894736842105,4151,-67.7263157894737,292.168421052632,3555,21.9052631578947,3800,4232,-169.368421052632,-272.452631578947,3872,3796,165.094736842105,108,0,1555,1771,580,4,4,4,4,4,4,4,4,4,4,4,4,4,4,4,4
"56",4099,-12.8526315789474,4152,-69.2631578947368,288.578947368421,3555,27.5473684210526,3797,4232,-170.915789473684,-272.452631578947,3872,3797,164.578947368421,109,0,1563,1771,667,4,4,4,4,4,4,4,4,4,4,4,4,4,4,4,4
"57",4101,-0.0315789473684211,4151,-57.9789473684211,294.221052631579,3558,28.0631578947368,3806,4235,-162.705263157895,-273.473684210526,3881,3798,174.842105263158,110,0,1559,1767,596,4,4,4,4,4,4,4,4,4,4,4,4,4,4,4,4
"58",4107,13.8105263157895,4151,-47.2105263157895,300.884210526316,3567,28.0631578947368,3820,4236,-148.347368421053,-268.347368421053,3895,3797,187.147368421053,111,0,1559,1767,579,4,4,4,4,4,4,4,4,4,4,4,4,4,4,4,4
"59",4107,14.8421052631579,4152,-46.1894736842105,295.242105263158,3571,30.1157894736842,3823,4234,-141.168421052632,-262.705263157895,3899,3798,193.305263157895,112,0,1559,1767,580,4,4,4,4,4,4,4,4,4,4,4,4,4,4,4,4
"60",4102,12.2736842105263,4151,-46.6947368421053,295.242105263158,3569,31.1368421052632,3822,4237,-140.136842105263,-261.168421052632,3895,3798,192.789473684211,113,0,1563,1771,667,4,4,4,4,4,4,4,4,4,4,4,4,4,4,4,4
"61",4105,14.8421052631579,4153,-41.5684210526316,304.989473684211,3571,32.1684210526316,3832,4245,-127.831578947368,-264.757894736842,3902,3799,192.273684210526,114,0,1559,1767,596,4,4,4,4,4,4,4,4,4,4,4,4,4,4,4,4
"62",4107,15.3473684210526,4153,-40.5473684210526,301.905263157895,3569,32.1684210526316,3833,4241,-112.452631578947,-270.915789473684,3904,3798,190.736842105263,115,0,1559,1771,579,4,4,4,4,4,4,4,4,4,4,4,4,4,4,4,4
"63",4099,13.8105263157895,4152,-50.8,290.115789473684,3559,28.0631578947368,3818,4230,-109.368421052632,-274.505263157895,3892,3793,185.610526315789,116,0,1563,1767,580,4,4,4,4,4,4,4,4,4,4,4,4,4,4,4,4
"64",4096,15.8631578947368,4151,-57.9789473684211,290.631578947368,3556,29.6,3811,4238,-110.915789473684,-271.936842105263,3889,3793,180.484210526316,117,0,1555,1767,667,4,4,4,4,4,4,4,4,4,4,4,4,4,4,4,4
"65",4098,14.8421052631579,4152,-55.9263157894737,293.705263157895,3557,33.1894736842105,3812,4245,-113.473684210526,-270.915789473684,3894,3795,180.484210526316,118,0,1559,1767,596,4,4,4,4,4,4,4,4,4,4,4,4,4,4,4,4
"66",4097,14.3263157894737,4152,-53.3684210526316,289.6,3554,29.0842105263158,3809,4237,-117.578947368421,-274.505263157895,3891,3794,183.042105263158,119,0,1559,1767,579,4,4,4,4,4,4,4,4,4,4,4,4,4,4,4,4
"67",4100,22.0210526315789,4152,-49.7789473684211,294.726315789474,3557,31.6526315789474,3812,4238,-112.452631578947,-269.884210526316,3892,3796,187.663157894737,120,0,1559,1767,580,4,4,4,4,4,4,4,4,4,4,4,4,4,4,4,4
"68",4107,31.7578947368421,4158,-40.0315789473684,304.989473684211,3562,44.4736842105263,3830,4249,-99.6315789473684,-261.168421052632,3906,3805,197.915789473684,121,0,1559,1771,667,4,4,4,4,4,4,4,4,4,4,4,4,4,4,4,4
"69",4107,33.8105263157895,4161,-38.4947368421053,305.494736842105,3559,44.4736842105263,3832,4247,-102.705263157895,-259.115789473684,3906,3805,197.915789473684,122,0,1563,1767,596,4,4,4,4,4,4,4,4,4,4,4,4,4,4,4,4
"70",4104,30.7368421052632,4155,-46.6947368421053,301.905263157895,3557,37.8105263157895,3821,4243,-113.473684210526,-264.757894736842,3896,3801,189.715789473684,123,0,1559,1767,579,4,4,4,4,4,4,4,4,4,4,4,4,4,4,4,4
"71",4103,28.6842105263158,4154,-53.8736842105263,301.905263157895,3556,41.4,3813,4245,-117.063157894737,-271.421052631579,3893,3800,186.631578947368,124,0,1559,1775,580,4,4,4,4,4,4,4,4,4,4,4,4,4,4,4,4
"72",4099,28.1684210526316,4156,-61.5684210526316,296.778947368421,3545,44.4736842105263,3805,4239,-123.726315789474,-273.989473684211,3885,3799,179.968421052632,125,0,1563,1767,667,4,4,4,4,4,4,4,4,4,4,4,4,4,4,4,4
"73",4098,27.1473684210526,4155,-68.7473684210526,291.652631578947,3537,40.8842105263158,3795,4235,-135.010526315789,-274.505263157895,3874,3798,169.2,126,0,1555,1771,596,4,4,4,4,4,4,4,4,4,4,4,4,4,4,4,4
"74",4098,26.1263157894737,4155,-67.7263157894737,295.757894736842,3541,44.4736842105263,3796,4243,-135.526315789474,-272.957894736842,3877,3798,169.2,127,0,1559,1771,579,4,4,4,4,4,4,4,4,4,4,4,4,4,4,4,4
"75",4095,27.1473684210526,4157,-61.5684210526316,301.4,3542,48.0631578947368,3800,4246,-128.347368421053,-271.936842105263,3882,3799,176.378947368421,128,0,1559,1771,580,4,4,4,4,4,4,4,4,4,4,4,4,4,4,4,4
"76",4098,27.6631578947368,4156,-60.5473684210526,301.905263157895,3539,47.0421052631579,3799,4245,-124.242105263158,-271.936842105263,3882,3801,179.452631578947,0,0,1559,1771,441,4,4,4,4,4,4,4,4,4,4,4,4,4,4,4,4
"77",4106,31.7578947368421,4161,-57.4631578947368,300.884210526316,3543,49.6,3803,4247,-119.631578947368,-271.421052631579,3891,3801,182.536842105263,1,0,1555,1775,538,4,4,4,4,4,4,4,4,4,4,4,4,4,4,4,4
"78",4105,41.5052631578947,4166,-52.3368421052632,303.957894736842,3545,57.8105263157895,3808,4249,-115.010526315789,-271.936842105263,3897,3802,186.126315789474,2,0,1563,1771,523,4,4,4,4,4,4,4,4,4,4,4,4,4,4,4,4
"79",4098,43.5578947368421,4164,-54.3894736842105,303.957894736842,3544,57.2947368421053,3805,4247,-117.578947368421,-271.936842105263,3893,3801,185.610526315789,3,0,1555,1771,548,4,4,4,4,4,4,4,4,4,4,4,4,4,4,4,4
"80",4097,35.8631578947368,4157,-59.5157894736842,295.757894736842,3542,48.5789473684211,3799,4246,-122.189473684211,-272.957894736842,3889,3798,177.4,4,0,1559,1775,509,4,4,4,4,4,4,4,4,4,4,4,4,4,4,4,4
"81",4098,33.8105263157895,4158,-56.9578947368421,294.221052631579,3542,49.0842105263158,3802,4246,-120.652631578947,-275.010526315789,3891,3797,176.894736842105,5,0,1563,1771,451,4,4,4,4,4,4,4,4,4,4,4,4,4,4,4,4
"82",4095,34.3263157894737,4164,-53.3684210526316,300.884210526316,3545,56.7789473684211,3806,4247,-117.578947368421,-271.421052631579,3893,3800,184.073684210526,6,0,1559,1775,446,4,4,4,4,4,4,4,4,4,4,4,4,4,4,4,4
"83",4097,27.6631578947368,4167,-60.5473684210526,302.936842105263,3541,60.3684210526316,3798,4248,-122.705263157895,-262.705263157895,3885,3802,177.4,7,0,1559,1775,762,4,4,4,4,4,4,4,4,4,4,4,4,4,4,4,4
"84",4105,27.1473684210526,4169,-61.5684210526316,303.452631578947,3541,60.3684210526316,3797,4250,-122.189473684211,-260.652631578947,3884,3803,175.863157894737,8,0,1559,1771,790,4,4,4,4,4,4,4,4,4,4,4,4,4,4,4,4
"85",4109,40.9894736842105,4171,-44.6526315789474,304.989473684211,3556,60.8842105263158,3815,4253,-102.705263157895,-262.705263157895,3904,3806,199.452631578947,9,0,1559,1771,756,4,4,4,4,4,4,4,4,4,4,4,4,4,4,4,4
"86",4106,49.7157894736842,4171,-37.4631578947368,304.473684210526,3567,61.4,3824,4252,-91.4210526315789,-260.652631578947,3916,3805,212.273684210526,10,0,1559,1771,596,4,4,4,4,4,4,4,4,4,4,4,4,4,4,4,4
"87",4103,40.4842105263158,4168,-51.3157894736842,303.452631578947,3556,56.7789473684211,3808,4249,-107.315789473684,-261.684210526316,3903,3801,195.863157894737,11,0,1555,1771,579,4,4,4,4,4,4,4,4,4,4,4,4,4,4,4,4
"88",4098,28.1684210526316,4168,-64.6526315789474,300.884210526316,3542,50.1157894736842,3794,4247,-123.726315789474,-270.4,3886,3800,182.536842105263,12,0,1559,1775,580,4,4,4,4,4,4,4,4,4,4,4,4,4,4,4,4
"89",4090,26.1263157894737,4164,-65.6736842105263,291.136842105263,3539,46.0105263157895,3795,4245,-124.757894736842,-275.526315789474,3879,3799,182.536842105263,13,0,1559,1771,667,4,4,4,4,4,4,4,4,4,4,4,4,4,4,4,4
"90",4092,27.6631578947368,4160,-63.6210526315789,286.526315789474,3543,46.5263157894737,3792,4247,-120.652631578947,-273.989473684211,3883,3798,183.557894736842,14,0,1559,1771,596,4,4,4,4,4,4,4,4,4,4,4,4,4,4,4,4
"91",4102,26.6315789473684,4164,-61.5684210526316,293.705263157895,3545,52.1684210526316,3791,4248,-119.631578947368,-272.957894736842,3890,3799,186.126315789474,15,0,1559,1771,579,4,4,4,4,4,4,4,4,4,4,4,4,4,4,4,4
"92",4106,27.1473684210526,4169,-60.0315789473684,296.778947368421,3541,58.3157894736842,3795,4248,-121.684210526316,-273.473684210526,3891,3800,185.610526315789,16,0,1559,1775,0,4,4,4,4,4,4,4,4,4,4,4,4,4,4,4,4
"93",4104,28.6842105263158,4167,-59.5157894736842,293.18947368421,3542,59.8631578947368,3798,4248,-120.136842105263,-266.810526315789,3890,3801,188.168421052632,17,0,1563,1767,0,4,4,4,4,4,4,4,4,4,4,4,4,4,4,4,4
"94",4105,33.3052631578947,4167,-55.4210526315789,296.273684210526,3552,58.3157894736842,3801,4249,-113.473684210526,-260.136842105263,3893,3801,198.936842105263,18,0,1555,1771,0,4,4,4,4,4,4,4,4,4,4,4,4,4,4,4,4
"95",4109,39.9684210526316,4169,-49.7789473684211,303.452631578947,3559,60.3684210526316,3804,4249,-107.831578947368,-261.168421052632,3901,3803,206.126315789474,19,0,1559,1771,0,4,4,4,4,4,4,4,4,4,4,4,4,4,4,4,4
"96",4108,44.0736842105263,4170,-48.2421052631579,303.452631578947,3557,63.4526315789474,3804,4250,-105.778947368421,-261.684210526316,3908,3804,206.126315789474,20,0,1559,1771,0,4,4,4,4,4,4,4,4,4,4,4,4,4,4,4,4
"97",4109,44.0736842105263,4170,-47.7263157894737,302.421052631579,3557,62.9368421052632,3805,4251,-102.189473684211,-259.631578947368,3911,3805,211.757894736842,21,0,1559,1771,0,4,4,4,4,4,4,4,4,4,4,4,4,4,4,4,4
"98",4110,43.5578947368421,4170,-46.6947368421053,303.452631578947,3560,62.9368421052632,3807,4252,-99.1157894736842,-260.652631578947,3910,3807,214.842105263158,22,0,1559,1771,0,4,4,4,4,4,4,4,4,4,4,4,4,4,4,4,4
"99",4108,43.5578947368421,4171,-48.2421052631579,302.936842105263,3557,61.4,3804,4250,-100.136842105263,-260.652631578947,3909,3806,209.2,23,0,1563,1771,0,4,4,4,4,4,4,4,4,4,4,4,4,4,4,4,4
"100",4108,44.0736842105263,4173,-49.7789473684211,301.4,3556,61.4,3802,4250,-102.189473684211,-258.094736842105,3910,3806,208.684210526316,24,0,1555,1767,0,4,4,4,4,4,4,4,4,4,4,4,4,4,4,4,4
"101",4109,46.6315789473684,4173,-50.2842105263158,304.473684210526,3559,64.4736842105263,3800,4256,-105.273684210526,-258.094736842105,3910,3811,209.715789473684,25,0,1559,1775,0,4,4,4,4,4,4,4,4,4,4,4,4,4,4,4,4
"102",4109,46.6315789473684,4171,-53.3684210526316,304.989473684211,3555,64.4736842105263,3799,4256,-108.863157894737,-259.631578947368,3902,3813,204.578947368421,26,0,1563,1767,0,4,4,4,4,4,4,4,4,4,4,4,4,4,4,4,4
"103",4106,45.6105263157895,4171,-56.4421052631579,297.810526315789,3546,60.8842105263158,3797,4249,-111.421052631579,-260.652631578947,3893,3804,198.936842105263,27,0,1555,1771,0,4,4,4,4,4,4,4,4,4,4,4,4,4,4,4,4
"104",4106,47.1473684210526,4172,-56.9578947368421,295.242105263158,3544,60.3684210526316,3797,4251,-114.505263157895,-259.115789473684,3895,3798,199.452631578947,28,0,1563,1771,0,4,4,4,4,4,4,4,4,4,4,4,4,4,4,4,4
"105",4107,50.7368421052632,4170,-54.9052631578947,302.421052631579,3550,62.9368421052632,3798,4259,-112.452631578947,-257.578947368421,3899,3806,202.021052631579,29,0,1563,1767,0,4,4,4,4,4,4,4,4,4,4,4,4,4,4,4,4
"106",4106,50.2210526315789,4172,-54.3894736842105,304.473684210526,3549,61.9052631578947,3798,4261,-109.884210526316,-258.094736842105,3897,3811,202.021052631579,30,0,1559,1771,0,4,4,4,4,4,4,4,4,4,4,4,4,4,4,4,4
"107",4106,46.1263157894737,4178,-56.4421052631579,302.421052631579,3543,60.8842105263158,3795,4262,-113.989473684211,-253.989473684211,3896,3811,200.484210526316,31,0,1559,1771,0,4,4,4,4,4,4,4,4,4,4,4,4,4,4,4,4
"108",4109,44.0736842105263,4186,-56.4421052631579,304.989473684211,3545,64.4736842105263,3797,4266,-118.094736842105,-245.778947368421,3899,3814,202.536842105263,32,0,1567,1767,0,4,4,4,4,4,4,4,4,4,4,4,4,4,4,4,4
"109",4110,45.6105263157895,4183,-54.9052631578947,305.494736842105,3549,65.4947368421053,3799,4266,-117.063157894737,-246.294736842105,3897,3816,205.094736842105,33,0,1559,1771,0,4,4,4,4,4,4,4,4,4,4,4,4,4,4,4,4
"110",4107,45.6105263157895,4177,-56.4421052631579,301.4,3552,61.9052631578947,3797,4263,-115.526315789474,-251.936842105263,3896,3813,201.505263157895,34,0,1559,1771,0,4,4,4,4,4,4,4,4,4,4,4,4,4,4,4,4
"111",4107,45.0947368421053,4180,-54.9052631578947,301.905263157895,3554,60.8842105263158,3795,4264,-112.452631578947,-249.884210526316,3904,3813,203.557894736842,35,0,1563,1767,0,4,4,4,4,4,4,4,4,4,4,4,4,4,4,4,4
"112",4110,51.2526315789474,4184,-46.6947368421053,304.989473684211,3561,62.9368421052632,3806,4266,-101.684210526316,-244.242105263158,3913,3816,216.894736842105,36,0,1559,1771,0,4,4,4,4,4,4,4,4,4,4,4,4,4,4,4,4
"113",4109,62.5368421052632,4184,-37.9789473684211,304.989473684211,3574,62.4210526315789,3815,4266,-91.9368421052632,-246.810526315789,3916,3815,227.663157894737,37,0,1559,1771,0,4,4,4,4,4,4,4,4,4,4,4,4,4,4,4,4
"114",4106,59.4526315789474,4179,-42.0842105263158,302.936842105263,3574,60.8842105263158,3807,4265,-96.5473684210526,-255.526315789474,3916,3813,224.073684210526,38,0,1559,1771,0,4,4,4,4,4,4,4,4,4,4,4,4,4,4,4,4
"115",4107,44.5789473684211,4176,-52.8526315789474,303.452631578947,3560,61.9052631578947,3794,4265,-110.915789473684,-258.6,3909,3813,212.273684210526,39,0,1559,1771,0,4,4,4,4,4,4,4,4,4,4,4,4,4,4,4,4
"116",4108,40.4842105263158,4172,-58.4947368421053,303.452631578947,3552,63.4526315789474,3795,4266,-119.631578947368,-256.042105263158,3897,3814,203.042105263158,40,0,1555,1775,0,4,4,4,4,4,4,4,4,4,4,4,4,4,4,4,4
"117",4107,43.0421052631579,4172,-56.9578947368421,298.831578947368,3553,62.4210526315789,3799,4266,-114.505263157895,-256.547368421053,3898,3810,202.536842105263,41,0,1563,1771,0,4,4,4,4,4,4,4,4,4,4,4,4,4,4,4,4
"118",4107,44.0736842105263,4176,-48.7473684210526,299.347368421053,3561,62.9368421052632,3808,4268,-105.778947368421,-259.631578947368,3910,3809,209.715789473684,42,0,1559,1767,0,4,4,4,4,4,4,4,4,4,4,4,4,4,4,4,4
"119",4107,47.6631578947368,4176,-40.0315789473684,300.884210526316,3569,63.9578947368421,3817,4272,-102.189473684211,-259.115789473684,3915,3813,216.378947368421,43,0,1559,1775,0,4,4,4,4,4,4,4,4,4,4,4,4,4,4,4,4
"120",4106,51.2526315789474,4172,-41.0631578947368,293.705263157895,3563,62.9368421052632,3815,4271,-105.273684210526,-258.6,3910,3814,216.894736842105,44,0,1559,1771,0,4,4,4,4,4,4,4,4,4,4,4,4,4,4,4,4
"121",4108,54.3263157894737,4173,-43.1052631578947,293.705263157895,3558,66.5263157894737,3812,4269,-103.726315789474,-258.6,3910,3812,215.347368421053,45,0,1555,1771,0,4,4,4,4,4,4,4,4,4,4,4,4,4,4,4,4
"122",4110,57.9157894736842,4181,-40.0315789473684,302.936842105263,3569,74.7263157894737,3816,4276,-98.6,-257.063157894737,3918,3814,217.915789473684,46,0,1559,1771,0,4,4,4,4,4,4,4,4,4,4,4,4,4,4,4,4
"123",4109,58.4315789473684,4184,-41.0631578947368,304.473684210526,3573,76.7789473684211,3816,4280,-100.136842105263,-256.547368421053,3916,3816,217.915789473684,47,0,1559,1771,0,4,4,4,4,4,4,4,4,4,4,4,4,4,4,4,4
"124",4113,58.4315789473684,4184,-41.5684210526316,301.4,3569,74.7263157894737,3814,4278,-101.684210526316,-256.042105263158,3913,3815,219.968421052632,48,0,1559,1767,0,4,4,4,4,4,4,4,4,4,4,4,4,4,4,4,4
"125",4117,59.9684210526316,4179,-37.9789473684211,299.347368421053,3572,73.7052631578947,3816,4278,-98.0947368421053,-258.094736842105,3920,3814,225.610526315789,49,0,1563,1771,0,4,4,4,4,4,4,4,4,4,4,4,4,4,4,4,4
"126",4112,59.9684210526316,4175,-35.9263157894737,297.294736842105,3577,69.6,3822,4279,-95.0105263157895,-258.6,3926,3813,228.684210526316,50,0,1559,1767,0,4,4,4,4,4,4,4,4,4,4,4,4,4,4,4,4
"127",4109,65.0947368421053,4178,-25.6736842105263,301.905263157895,3587,72.1684210526316,3831,4278,-86.8105263157895,-252.957894736842,3931,3813,236.894736842105,51,0,1559,1771,0,4,4,4,4,4,4,4,4,4,4,4,4,4,4,4,4
"128",4114,67.1473684210526,4177,-17.4631578947368,303.452631578947,3595,73.7052631578947,3836,4276,-75.0105263157895,-251.936842105263,3942,3814,247.147368421053,52,0,1559,1771,0,4,4,4,4,4,4,4,4,4,4,4,4,4,4,4,4
"129",4115,63.0421052631579,4170,-21.5684210526316,299.347368421053,3593,64.4736842105263,3837,4275,-76.5473684210526,-256.547368421053,3942,3813,244.578947368421,53,0,1563,1767,0,4,4,4,4,4,4,4,4,4,4,4,4,4,4,4,4
"130",4112,62.0210526315789,4176,-27.2105263157895,301.4,3586,64.9894736842105,3837,4276,-87.3157894736842,-258.094736842105,3932,3812,236.378947368421,54,0,1559,1763,0,4,4,4,4,4,4,4,4,4,4,4,4,4,4,4,4
"131",4111,58.9368421052632,4185,-29.7789473684211,302.421052631579,3579,74.7263157894737,3832,4278,-91.4210526315789,-254.505263157895,3927,3814,233.810526315789,55,0,1559,1771,0,4,4,4,4,4,4,4,4,4,4,4,4,4,4,4,4
"132",4109,46.1263157894737,4174,-40.0315789473684,293.705263157895,3571,69.0842105263158,3821,4277,-99.1157894736842,-255.010526315789,3916,3812,225.094736842105,56,0,1563,1767,0,4,4,4,4,4,4,4,4,4,4,4,4,4,4,4,4
"133",4105,39.9684210526316,4166,-49.7789473684211,288.578947368421,3563,58.8315789473684,3815,4271,-115.010526315789,-259.115789473684,3906,3804,214.326315789474,57,0,1555,1767,0,4,4,4,4,4,4,4,4,4,4,4,4,4,4,4,4
"134",4105,43.5578947368421,4170,-48.2421052631579,290.115789473684,3562,60.3684210526316,3815,4265,-119.115789473684,-260.136842105263,3907,3803,214.326315789474,58,0,1563,1771,0,4,4,4,4,4,4,4,4,4,4,4,4,4,4,4,4
"135",4107,44.5789473684211,4171,-45.1578947368421,290.115789473684,3570,62.4210526315789,3817,4265,-110.4,-259.115789473684,3909,3805,218.431578947368,59,0,1559,1771,0,4,4,4,4,4,4,4,4,4,4,4,4,4,4,4,4
"136",4108,42.5368421052632,4170,-46.1894736842105,288.578947368421,3576,60.8842105263158,3816,4272,-109.884210526316,-257.578947368421,3910,3804,217.915789473684,60,0,1559,1771,0,4,4,4,4,4,4,4,4,4,4,4,4,4,4,4,4
"137",4106,37.9157894736842,4170,-49.7789473684211,289.084210526316,3568,62.4210526315789,3810,4273,-119.115789473684,-257.578947368421,3907,3802,214.842105263158,61,0,1555,1771,0,4,4,4,4,4,4,4,4,4,4,4,4,4,4,4,4
"138",4105,31.2526315789474,4170,-53.8736842105263,289.084210526316,3562,64.9894736842105,3803,4272,-120.136842105263,-258.6,3901,3804,209.715789473684,62,0,1563,1771,0,4,4,4,4,4,4,4,4,4,4,4,4,4,4,4,4
"139",4106,33.3052631578947,4170,-53.3684210526316,288.578947368421,3566,64.4736842105263,3803,4277,-116.042105263158,-257.578947368421,3901,3809,209.715789473684,63,0,1555,1767,0,4,4,4,4,4,4,4,4,4,4,4,4,4,4,4,4
"140",4108,42.0210526315789,4173,-47.2105263157895,291.136842105263,3574,67.5473684210526,3812,4278,-112.452631578947,-256.042105263158,3910,3814,221.505263157895,64,0,1555,1775,441,4,4,4,4,4,4,4,4,4,4,4,4,4,4,4,4
"141",4107,42.0210526315789,4174,-38.4947368421053,293.18947368421,3575,72.1684210526316,3819,4278,-107.315789473684,-256.042105263158,3916,3813,229.715789473684,65,0,1563,1771,538,4,4,4,4,4,4,4,4,4,4,4,4,4,4,4,4
"142",4107,34.8421052631579,4172,-40.5473684210526,291.652631578947,3574,69.0842105263158,3818,4278,-108.347368421053,-257.578947368421,3910,3807,223.042105263158,66,0,1555,1771,523,4,4,4,4,4,4,4,4,4,4,4,4,4,4,4,4
"143",4105,32.7894736842105,4170,-50.2842105263158,289.6,3575,62.4210526315789,3814,4273,-116.042105263158,-258.094736842105,3904,3803,216.894736842105,67,0,1559,1775,548,4,4,4,4,4,4,4,4,4,4,4,4,4,4,4,4
"144",4096,27.6631578947368,4167,-59.0105263157895,286.010526315789,3566,60.3684210526316,3803,4266,-127.315789473684,-260.136842105263,3894,3798,208.684210526316,68,0,1559,1771,509,4,4,4,4,4,4,4,4,4,4,4,4,4,4,4,4
"145",4089,12.7894736842105,4165,-69.7789473684211,282.421052631579,3552,59.3473684210526,3787,4264,-142.705263157895,-263.221052631579,3878,3796,189.715789473684,69,0,1559,1771,451,4,4,4,4,4,4,4,4,4,4,4,4,4,4,4,4
"146",4091,13.8105263157895,4166,-71.8315789473684,284.989473684211,3554,59.8631578947368,3789,4268,-142.705263157895,-261.684210526316,3876,3799,186.126315789474,70,0,1555,1775,446,4,4,4,4,4,4,4,4,4,4,4,4,4,4,4,4
"147",4094,29.2,4168,-61.5684210526316,288.578947368421,3562,62.9368421052632,3802,4272,-129.884210526316,-259.631578947368,3891,3802,203.042105263158,71,0,1563,1771,761,4,4,4,4,4,4,4,4,4,4,4,4,4,4,4,4
"148",4095,28.6842105263158,4168,-54.9052631578947,286.526315789474,3559,62.4210526315789,3805,4275,-128.347368421053,-258.094736842105,3897,3802,207.147368421053,72,0,1559,1771,790,4,4,4,4,4,4,4,4,4,4,4,4,4,4,4,4
"149",4095,19.4526315789474,4168,-57.4631578947368,286.010526315789,3561,61.9052631578947,3800,4277,-133.989473684211,-257.578947368421,3892,3802,202.021052631579,73,0,1559,1775,755,4,4,4,4,4,4,4,4,4,4,4,4,4,4,4,4
"150",4094,19.4526315789474,4168,-57.9789473684211,288.578947368421,3572,64.9894736842105,3803,4277,-128.863157894737,-258.094736842105,3894,3801,207.663157894737,74,0,1559,1767,596,4,4,4,4,4,4,4,4,4,4,4,4,4,4,4,4
"151",4095,23.5578947368421,4168,-52.8526315789474,288.578947368421,3576,65.4947368421053,3809,4276,-120.136842105263,-252.957894736842,3902,3802,216.894736842105,75,0,1559,1771,579,4,4,4,4,4,4,4,4,4,4,4,4,4,4,4,4
"152",4097,25.6105263157895,4169,-52.8526315789474,288.063157894737,3572,64.9894736842105,3808,4276,-122.705263157895,-248.347368421053,3899,3803,216.894736842105,76,0,1559,1771,580,4,4,4,4,4,4,4,4,4,4,4,4,4,4,4,4
"153",4095,25.6105263157895,4170,-56.9578947368421,287.547368421053,3571,64.9894736842105,3801,4277,-132.957894736842,-251.421052631579,3893,3803,207.147368421053,77,0,1559,1771,667,4,4,4,4,4,4,4,4,4,4,4,4,4,4,4,4
"154",4094,23.5578947368421,4169,-59.0105263157895,287.042105263158,3570,65.4947368421053,3799,4277,-135.526315789474,-251.421052631579,3893,3801,201.505263157895,78,0,1563,1767,596,4,4,4,4,4,4,4,4,4,4,4,4,4,4,4,4
"155",4095,26.6315789473684,4170,-55.9263157894737,288.063157894737,3569,63.9578947368421,3803,4276,-127.315789473684,-245.778947368421,3897,3802,210.736842105263,79,0,1559,1775,579,4,4,4,4,4,4,4,4,4,4,4,4,4,4,4,4
"156",4095,29.2,4171,-54.3894736842105,289.6,3574,65.4947368421053,3803,4278,-124.242105263158,-245.778947368421,3897,3803,219.452631578947,80,0,1563,1771,580,4,4,4,4,4,4,4,4,4,4,4,4,4,4,4,4
"157",4095,22.0210526315789,4170,-55.9263157894737,289.084210526316,3571,70.1157894736842,3801,4279,-131.421052631579,-246.810526315789,3895,3801,212.789473684211,81,0,1559,1767,667,4,4,4,4,4,4,4,4,4,4,4,4,4,4,4,4
"158",4096,13.8105263157895,4169,-58.4947368421053,286.010526315789,3560,65.4947368421053,3795,4279,-136.547368421053,-244.242105263158,3891,3798,202.021052631579,82,0,1559,1775,596,4,4,4,4,4,4,4,4,4,4,4,4,4,4,4,4
"159",4093,11.7578947368421,4169,-59.0105263157895,286.010526315789,3561,64.4736842105263,3791,4277,-136.547368421053,-247.831578947368,3887,3798,200.989473684211,83,0,1559,1767,579,4,4,4,4,4,4,4,4,4,4,4,4,4,4,4,4
"160",4090,19.9684210526316,4170,-50.8,290.115789473684,3573,73.1894736842105,3804,4279,-128.863157894737,-246.810526315789,3894,3802,212.273684210526,84,0,1559,1771,580,4,4,4,4,4,4,4,4,4,4,4,4,4,4,4,4
"161",4091,31.2526315789474,4169,-45.6736842105263,289.6,3576,72.1684210526316,3816,4278,-123.726315789474,-242.189473684211,3902,3801,219.968421052632,85,0,1559,1771,667,4,4,4,4,4,4,4,4,4,4,4,4,4,4,4,4
"162",4087,24.0736842105263,4169,-54.3894736842105,281.905263157895,3570,60.8842105263158,3807,4268,-131.421052631579,-251.936842105263,3894,3793,209.715789473684,86,0,1559,1767,596,4,4,4,4,4,4,4,4,4,4,4,4,4,4,4,4
"163",4081,11.2526315789474,4169,-61.0631578947368,278.315789473684,3569,59.3473684210526,3798,4264,-137.578947368421,-258.094736842105,3886,3791,200.484210526316,87,0,1559,1771,579,4,4,4,4,4,4,4,4,4,4,4,4,4,4,4,4
"164",4082,17.4,4169,-57.4631578947368,281.905263157895,3572,64.4736842105263,3805,4268,-134.505263157895,-248.863157894737,3892,3794,204.073684210526,88,0,1559,1771,580,4,4,4,4,4,4,4,4,4,4,4,4,4,4,4,4
"165",4088,29.7157894736842,4169,-56.4421052631579,281.4,3571,63.9578947368421,3806,4267,-133.989473684211,-244.757894736842,3893,3795,203.557894736842,89,0,1559,1767,667,4,4,4,4,4,4,4,4,4,4,4,4,4,4,4,4
"166",4090,27.6631578947368,4169,-59.5157894736842,280.368421052632,3569,62.9368421052632,3804,4264,-137.063157894737,-249.368421052632,3888,3795,199.968421052632,90,0,1559,1771,596,4,4,4,4,4,4,4,4,4,4,4,4,4,4,4,4
"167",4087,23.0421052631579,4169,-55.4210526315789,281.905263157895,3570,64.4736842105263,3812,4267,-135.526315789474,-246.810526315789,3892,3794,208.684210526316,91,0,1555,1771,579,4,4,4,4,4,4,4,4,4,4,4,4,4,4,4,4
"168",4086,25.0947368421053,4169,-51.8315789473684,277.810526315789,3572,62.9368421052632,3815,4267,-132.452631578947,-243.221052631579,3897,3790,213.810526315789,92,0,1559,1771,580,4,4,4,4,4,4,4,4,4,4,4,4,4,4,4,4
"169",4087,24.5789473684211,4169,-55.4210526315789,276.778947368421,3570,59.8631578947368,3807,4264,-134.505263157895,-245.273684210526,3892,3791,209.715789473684,93,0,1559,1767,667,4,4,4,4,4,4,4,4,4,4,4,4,4,4,4,4
"170",4090,24.5789473684211,4169,-51.8315789473684,286.010526315789,3570,67.0421052631579,3807,4267,-132.452631578947,-245.273684210526,3894,3798,214.326315789474,94,0,1555,1775,596,4,4,4,4,4,4,4,4,4,4,4,4,4,4,4,4
"171",4091,31.2526315789474,4169,-41.5684210526316,290.115789473684,3573,75.2421052631579,3815,4272,-124.757894736842,-244.757894736842,3906,3801,220.989473684211,95,0,1563,1767,579,4,4,4,4,4,4,4,4,4,4,4,4,4,4,4,4
"172",4091,34.8421052631579,4169,-40.0315789473684,286.010526315789,3575,68.0631578947368,3815,4268,-121.684210526316,-245.273684210526,3909,3797,219.968421052632,96,0,1555,1767,580,4,4,4,4,4,4,4,4,4,4,4,4,4,4,4,4
"173",4090,30.7368421052632,4169,-42.6,286.526315789474,3572,64.4736842105263,3814,4263,-121.684210526316,-244.757894736842,3905,3798,220.484210526316,97,0,1555,1771,667,4,4,4,4,4,4,4,4,4,4,4,4,4,4,4,4
"174",4091,31.2526315789474,4169,-40.0315789473684,289.084210526316,3572,72.1684210526316,3822,4270,-117.063157894737,-244.242105263158,3910,3802,226.631578947368,98,0,1559,1771,596,4,4,4,4,4,4,4,4,4,4,4,4,4,4,4,4
"175",4095,39.9684210526316,4172,-30.8,289.6,3581,76.2736842105263,3833,4279,-107.315789473684,-243.221052631579,3922,3801,233.810526315789,99,0,1559,1767,579,4,4,4,4,4,4,4,4,4,4,4,4,4,4,4,4
"176",4100,49.2,4178,-19.5157894736842,292.168421052632,3591,76.7789473684211,3838,4279,-96.0421052631579,-236.042105263158,3930,3802,245.610526315789,100,0,1555,1771,580,4,4,4,4,4,4,4,4,4,4,4,4,4,4,4,4
"177",4098,45.0947368421053,4178,-20.0315789473684,292.168421052632,3591,77.2947368421053,3835,4278,-97.5789473684211,-233.473684210526,3928,3803,245.094736842105,101,0,1559,1775,667,4,4,4,4,4,4,4,4,4,4,4,4,4,4,4,4
"178",4088,31.2526315789474,4171,-34.3894736842105,287.042105263158,3585,73.7052631578947,3829,4277,-111.421052631579,-241.684210526316,3921,3801,232.789473684211,102,0,1559,1767,596,4,4,4,4,4,4,4,4,4,4,4,4,4,4,4,4
"179",4089,32.7894736842105,4170,-34.9052631578947,288.063157894737,3585,73.7052631578947,3831,4277,-110.915789473684,-240.136842105263,3923,3800,234.326315789474,103,0,1555,1775,579,4,4,4,4,4,4,4,4,4,4,4,4,4,4,4,4
"180",4097,43.0421052631579,4175,-24.1368421052632,291.652631578947,3590,76.7789473684211,3835,4278,-99.6315789473684,-230.4,3929,3802,245.610526315789,104,0,1563,1767,580,4,4,4,4,4,4,4,4,4,4,4,4,4,4,4,4
"181",4093,38.9368421052632,4173,-25.6736842105263,288.063157894737,3589,74.2210526315789,3835,4277,-102.705263157895,-231.421052631579,3925,3802,241.505263157895,105,0,1559,1771,667,4,4,4,4,4,4,4,4,4,4,4,4,4,4,4,4
"182",4091,35.3473684210526,4170,-26.1894736842105,287.547368421053,3589,75.2421052631579,3842,4277,-104.242105263158,-233.989473684211,3928,3800,240.989473684211,106,0,1555,1771,596,4,4,4,4,4,4,4,4,4,4,4,4,4,4,4,4
"183",4102,48.1684210526316,4182,-15.4210526315789,291.652631578947,3595,79.3473684210526,3854,4279,-91.9368421052632,-229.368421052632,3940,3802,254.842105263158,107,0,1559,1771,579,4,4,4,4,4,4,4,4,4,4,4,4,4,4,4,4
"184",4103,54.8421052631579,4186,-13.8736842105263,291.652631578947,3601,79.3473684210526,3852,4279,-88.8631578947368,-229.884210526316,3943,3804,258.431578947368,108,0,1559,1771,580,4,4,4,4,4,4,4,4,4,4,4,4,4,4,4,4
"185",4097,52.7894736842105,4173,-17.9789473684211,289.084210526316,3599,76.2736842105263,3849,4277,-91.4210526315789,-232.452631578947,3937,3802,252.789473684211,109,0,1555,1771,667,4,4,4,4,4,4,4,4,4,4,4,4,4,4,4,4
"186",4099,58.9368421052632,4173,-9.77894736842105,290.631578947368,3604,78.3157894736842,3859,4278,-83.2210526315789,-229.368421052632,3943,3802,262.021052631579,110,0,1559,1771,596,4,4,4,4,4,4,4,4,4,4,4,4,4,4,4,4
"187",4101,64.0736842105263,4184,0.484210526315789,294.221052631579,3615,80.3684210526316,3868,4279,-75.5263157894737,-228.347368421053,3956,3804,272.789473684211,111,0,1559,1771,579,4,4,4,4,4,4,4,4,4,4,4,4,4,4,4,4
"188",4098,61.5052631578947,4178,-0.0315789473684211,294.221052631579,3615,78.3157894736842,3867,4280,-77.0631578947368,-228.863157894737,3955,3803,272.273684210526,112,0,1559,1771,580,4,4,4,4,4,4,4,4,4,4,4,4,4,4,4,4
"189",4101,58.9368421052632,4168,-7.21052631578947,290.631578947368,3606,76.7789473684211,3863,4279,-84.7578947368421,-228.863157894737,3943,3801,264.578947368421,113,0,1559,1767,667,4,4,4,4,4,4,4,4,4,4,4,4,4,4,4,4
"190",4098,56.3789473684211,4170,-16.9578947368421,286.526315789474,3601,76.2736842105263,3855,4278,-95.0105263157895,-230.915789473684,3936,3797,254.326315789474,114,0,1559,1771,596,4,4,4,4,4,4,4,4,4,4,4,4,4,4,4,4
"191",4094,58.4315789473684,4172,-16.4421052631579,288.578947368421,3603,76.2736842105263,3854,4276,-95.5263157894737,-230.4,3939,3798,254.842105263158,115,0,1559,1771,579,4,4,4,4,4,4,4,4,4,4,4,4,4,4,4,4
"192",4096,64.0736842105263,4172,-9.77894736842105,291.652631578947,3605,78.3157894736842,3862,4278,-88.3473684210526,-226.294736842105,3942,3801,262.536842105263,116,0,1559,1767,580,4,4,4,4,4,4,4,4,4,4,4,4,4,4,4,4
"193",4097,63.0421052631579,4171,-8.24210526315789,288.063157894737,3604,79.3473684210526,3863,4281,-85.7789473684211,-227.315789473684,3942,3801,263.557894736842,117,0,1559,1767,667,4,4,4,4,4,4,4,4,4,4,4,4,4,4,4,4
"194",4100,66.6315789473684,4172,-5.67368421052632,291.652631578947,3607,81.4,3866,4281,-81.6842105263158,-227.315789473684,3949,3801,266.631578947368,118,0,1555,1771,596,4,4,4,4,4,4,4,4,4,4,4,4,4,4,4,4
"195",4106,79.4526315789474,4178,2.53684210526316,303.957894736842,3612,89.6,3879,4282,-73.4736842105263,-219.115789473684,3959,3803,279.452631578947,119,0,1559,1767,579,4,4,4,4,4,4,4,4,4,4,4,4,4,4,4,4
"196",4107,78.4315789473684,4179,5.09473684210526,301.905263157895,3612,94.2210526315789,3878,4283,-74.5052631578947,-218.6,3962,3804,282.536842105263,120,0,1559,1767,580,4,4,4,4,4,4,4,4,4,4,4,4,4,4,4,4
"197",4101,63.5578947368421,4170,-1.06315789473684,289.084210526316,3606,84.4736842105263,3863,4281,-81.1684210526316,-226.810526315789,3953,3802,271.252631578947,121,0,1559,1771,667,4,4,4,4,4,4,4,4,4,4,4,4,4,4,4,4
"198",4094,60.9894736842105,4167,-7.72631578947368,286.526315789474,3604,75.7578947368421,3861,4277,-82.7052631578947,-229.884210526316,3946,3796,266.126315789474,122,0,1559,1767,596,4,4,4,4,4,4,4,4,4,4,4,4,4,4,4,4
"199",4092,60.4842105263158,4169,-12.3368421052632,290.115789473684,3607,77.8105263157895,3863,4277,-83.7263157894737,-228.863157894737,3943,3793,265.610526315789,123,0,1559,1767,579,4,4,4,4,4,4,4,4,4,4,4,4,4,4,4,4
"200",4091,46.6315789473684,4169,-10.2842105263158,288.063157894737,3603,80.8842105263158,3859,4278,-88.3473684210526,-229.884210526316,3939,3792,262.021052631579,124,0,1559,1771,580,4,4,4,4,4,4,4,4,4,4,4,4,4,4,4,4
"201",4092,42.5368421052632,4169,-4.65263157894737,287.547368421053,3601,78.8315789473684,3860,4278,-87.3157894736842,-229.368421052632,3946,3794,264.073684210526,125,0,1559,1767,667,4,4,4,4,4,4,4,4,4,4,4,4,4,4,4,4
"202",4097,55.3473684210526,4170,0.484210526315789,288.578947368421,3612,79.8631578947368,3871,4279,-73.9894736842105,-228.347368421053,3957,3797,276.378947368421,126,0,1559,1767,596,4,4,4,4,4,4,4,4,4,4,4,4,4,4,4,4
"203",4101,58.4315789473684,4171,5.61052631578947,288.578947368421,3621,84.4736842105263,3873,4281,-66.8105263157895,-228.347368421053,3963,3800,285.610526315789,127,0,1559,1771,579,4,4,4,4,4,4,4,4,4,4,4,4,4,4,4,4
"204",4096,47.1473684210526,4169,3.04210526315789,288.578947368421,3611,83.9578947368421,3863,4279,-77.0631578947368,-227.831578947368,3954,3800,278.431578947368,128,0,1559,1767,580,4,4,4,4,4,4,4,4,4,4,4,4,4,4,4,4
"205",4092,39.9684210526316,4168,-8.24210526315789,288.578947368421,3601,79.8631578947368,3857,4278,-87.3157894736842,-228.863157894737,3940,3797,265.610526315789,0,0,1559,1767,441,4,4,4,4,4,4,4,4,4,4,4,4,4,4,4,4
"206",4092,41.5052631578947,4169,-8.24210526315789,288.578947368421,3605,79.8631578947368,3862,4277,-82.7052631578947,-229.368421052632,3942,3792,265.610526315789,1,0,1555,1771,538,4,4,4,4,4,4,4,4,4,4,4,4,4,4,4,4
"207",4094,46.1263157894737,4170,2.53684210526316,288.578947368421,3609,84.9894736842105,3867,4278,-74.5052631578947,-227.831578947368,3956,3792,276.378947368421,2,0,1559,1771,523,4,4,4,4,4,4,4,4,4,4,4,4,4,4,4,4
"208",4097,44.5789473684211,4169,2.53684210526316,288.578947368421,3605,89.0842105263158,3864,4279,-79.6315789473684,-226.810526315789,3956,3798,276.378947368421,3,0,1559,1763,548,4,4,4,4,4,4,4,4,4,4,4,4,4,4,4,4
"209",4097,44.5789473684211,4170,-0.547368421052632,288.578947368421,3607,91.6526315789474,3861,4279,-81.1684210526316,-226.294736842105,3948,3799,271.252631578947,4,0,1555,1775,509,4,4,4,4,4,4,4,4,4,4,4,4,4,4,4,4
"210",4101,56.3789473684211,4172,9.71578947368421,288.578947368421,3618,92.6842105263158,3871,4281,-68.3473684210526,-225.273684210526,3959,3797,280.484210526316,5,0,1559,1767,451,4,4,4,4,4,4,4,4,4,4,4,4,4,4,4,4
"211",4106,64.0736842105263,4172,17.9157894736842,288.578947368421,3623,91.1368421052632,3884,4286,-58.0947368421053,-221.168421052632,3975,3800,292.273684210526,6,0,1559,1767,446,4,4,4,4,4,4,4,4,4,4,4,4,4,4,4,4
"212",4105,58.4315789473684,4173,15.3473684210526,288.578947368421,3620,94.2210526315789,3877,4285,-62.1894736842105,-218.094736842105,3974,3802,289.715789473684,7,0,1559,1771,760,4,4,4,4,4,4,4,4,4,4,4,4,4,4,4,4
"213",4105,56.3789473684211,4173,13.3052631578947,288.578947368421,3619,97.2947368421053,3872,4283,-65.2736842105263,-218.094736842105,3967,3799,282.021052631579,8,0,1559,1771,790,4,4,4,4,4,4,4,4,4,4,4,4,4,4,4,4
"214",4106,60.4842105263158,4171,14.8421052631579,288.578947368421,3622,97.2947368421053,3877,4283,-63.2210526315789,-219.115789473684,3967,3798,281.505263157895,9,0,1563,1767,753,4,4,4,4,4,4,4,4,4,4,4,4,4,4,4,4
"215",4105,53.8105263157895,4170,13.8105263157895,288.578947368421,3614,96.778947368421,3875,4283,-66.8105263157895,-221.168421052632,3963,3801,279.968421052632,10,0,1555,1767,596,4,4,4,4,4,4,4,4,4,4,4,4,4,4,4,4
"216",4104,46.1263157894737,4172,10.7368421052632,288.578947368421,3606,96.778947368421,3869,4282,-70.4,-225.273684210526,3957,3801,275.863157894737,11,0,1559,1771,579,4,4,4,4,4,4,4,4,4,4,4,4,4,4,4,4
"217",4105,52.2736842105263,4172,14.8421052631579,288.578947368421,3611,95.7578947368421,3874,4283,-66.8105263157895,-224.242105263158,3963,3798,280.989473684211,12,0,1559,1763,580,4,4,4,4,4,4,4,4,4,4,4,4,4,4,4,4
"218",4105,60.4842105263158,4171,26.1263157894737,288.578947368421,3623,95.7578947368421,3888,4284,-57.0631578947368,-218.094736842105,3976,3799,292.273684210526,13,0,1555,1771,667,4,4,4,4,4,4,4,4,4,4,4,4,4,4,4,4
"219",4104,59.4526315789474,4173,29.7157894736842,288.578947368421,3624,96.778947368421,3893,4282,-55.0105263157895,-216.547368421053,3977,3799,293.305263157895,14,0,1563,1767,596,4,4,4,4,4,4,4,4,4,4,4,4,4,4,4,4
"220",4105,57.4,4173,26.6315789473684,288.063157894737,3618,96.2736842105263,3885,4281,-62.7052631578947,-219.115789473684,3970,3798,288.168421052632,15,0,1559,1767,579,4,4,4,4,4,4,4,4,4,4,4,4,4,4,4,4
"221",4105,61.5052631578947,4171,25.6105263157895,289.084210526316,3619,97.2947368421053,3878,4283,-63.7263157894737,-218.094736842105,3970,3801,289.2,16,0,1559,1767,0,4,4,4,4,4,4,4,4,4,4,4,4,4,4,4,4
"222",4105,61.5052631578947,4171,25.6105263157895,288.578947368421,3623,97.2947368421053,3878,4283,-62.1894736842105,-217.063157894737,3973,3801,290.221052631579,17,0,1559,1771,0,4,4,4,4,4,4,4,4,4,4,4,4,4,4,4,4
"223",4105,59.4526315789474,4175,26.6315789473684,287.042105263158,3622,94.7263157894737,3884,4282,-61.6842105263158,-217.578947368421,3971,3800,290.736842105263,18,0,1563,1767,0,4,4,4,4,4,4,4,4,4,4,4,4,4,4,4,4
"224",4105,62.0210526315789,4178,32.2736842105263,291.652631578947,3623,101.905263157895,3892,4287,-55.0105263157895,-215.010526315789,3975,3802,298.431578947368,19,0,1555,1763,0,4,4,4,4,4,4,4,4,4,4,4,4,4,4,4,4
"225",4105,64.0736842105263,4176,34.3263157894737,294.726315789474,3629,107.547368421053,3897,4289,-47.8315789473684,-212.957894736842,3981,3803,305.610526315789,20,0,1563,1771,0,4,4,4,4,4,4,4,4,4,4,4,4,4,4,4,4
"226",4102,63.0421052631579,4172,30.7368421052632,290.631578947368,3629,98.8315789473684,3892,4282,-53.9894736842105,-217.578947368421,3977,3801,301.505263157895,21,0,1559,1767,0,4,4,4,4,4,4,4,4,4,4,4,4,4,4,4,4
"227",4099,60.9894736842105,4171,28.6842105263158,289.6,3622,91.6526315789474,3890,4278,-62.1894736842105,-220.136842105263,3971,3800,294.842105263158,22,0,1559,1771,0,4,4,4,4,4,4,4,4,4,4,4,4,4,4,4,4
"228",4100,60.4842105263158,4172,29.2,292.684210526316,3621,96.778947368421,3897,4282,-55.5263157894737,-215.526315789474,3976,3801,297.4,23,0,1559,1767,0,4,4,4,4,4,4,4,4,4,4,4,4,4,4,4,4
"229",4101,62.0210526315789,4173,30.2210526315789,291.652631578947,3625,102.421052631579,3897,4283,-49.8842105263158,-213.473684210526,3978,3801,303.557894736842,24,0,1559,1771,0,4,4,4,4,4,4,4,4,4,4,4,4,4,4,4,4
"230",4101,64.0736842105263,4174,30.7368421052632,291.136842105263,3625,101.4,3894,4283,-55.0105263157895,-214.505263157895,3976,3801,300.989473684211,25,0,1559,1771,0,4,4,4,4,4,4,4,4,4,4,4,4,4,4,4,4
"231",4099,62.0210526315789,4174,29.2,293.18947368421,3622,102.421052631579,3892,4282,-62.7052631578947,-213.473684210526,3973,3801,292.273684210526,26,0,1555,1771,0,4,4,4,4,4,4,4,4,4,4,4,4,4,4,4,4
"232",4097,57.9157894736842,4172,24.0736842105263,290.631578947368,3617,101.905263157895,3890,4282,-69.3684210526316,-213.989473684211,3962,3799,286.126315789474,27,0,1563,1771,0,4,4,4,4,4,4,4,4,4,4,4,4,4,4,4,4
"233",4096,56.8947368421053,4170,19.4526315789474,288.063157894737,3614,98.3157894736842,3890,4282,-70.9157894736842,-216.042105263158,3955,3798,285.610526315789,28,0,1559,1771,0,4,4,4,4,4,4,4,4,4,4,4,4,4,4,4,4
"234",4097,63.0421052631579,4170,24.0736842105263,289.084210526316,3618,94.7263157894737,3895,4281,-65.7789473684211,-215.526315789474,3966,3797,289.715789473684,29,0,1559,1775,0,4,4,4,4,4,4,4,4,4,4,4,4,4,4,4,4
"235",4095,70.2210526315789,4170,30.2210526315789,289.084210526316,3622,95.2421052631579,3898,4280,-62.1894736842105,-214.505263157895,3974,3798,294.326315789474,30,0,1559,1771,0,4,4,4,4,4,4,4,4,4,4,4,4,4,4,4,4
"236",4092,67.1473684210526,4169,25.6105263157895,287.547368421053,3618,102.421052631579,3895,4278,-68.3473684210526,-215.526315789474,3964,3798,290.221052631579,31,0,1555,1771,0,4,4,4,4,4,4,4,4,4,4,4,4,4,4,4,4
"237",4093,59.9684210526316,4169,21.5052631578947,287.042105263158,3617,102.936842105263,3892,4276,-74.5052631578947,-216.042105263158,3954,3797,284.073684210526,32,0,1559,1771,0,4,4,4,4,4,4,4,4,4,4,4,4,4,4,4,4
"238",4095,65.6105263157895,4169,28.1684210526316,287.547368421053,3620,97.2947368421053,3896,4277,-69.8842105263158,-215.010526315789,3962,3796,287.147368421053,33,0,1559,1771,0,4,4,4,4,4,4,4,4,4,4,4,4,4,4,4,4
"239",4093,75.3473684210526,4170,31.2526315789474,288.063157894737,3621,98.3157894736842,3898,4278,-64.2421052631579,-214.505263157895,3973,3799,290.736842105263,34,0,1559,1767,0,4,4,4,4,4,4,4,4,4,4,4,4,4,4,4,4
"240",4093,75.3473684210526,4171,27.1473684210526,289.084210526316,3619,104.989473684211,3895,4277,-63.2210526315789,-214.505263157895,3969,3801,289.715789473684,35,0,1559,1771,0,4,4,4,4,4,4,4,4,4,4,4,4,4,4,4,4
"241",4094,72.7894736842105,4170,26.1263157894737,291.136842105263,3619,107.042105263158,3891,4277,-66.8105263157895,-212.957894736842,3959,3802,286.126315789474,36,0,1559,1771,0,4,4,4,4,4,4,4,4,4,4,4,4,4,4,4,4
"242",4096,71.2526315789474,4176,27.6631578947368,291.136842105263,3619,105.494736842105,3891,4281,-72.4526315789474,-211.421052631579,3960,3805,280.989473684211,37,0,1559,1771,0,4,4,4,4,4,4,4,4,4,4,4,4,4,4,4,4
"243",4098,67.1473684210526,4182,27.1473684210526,290.631578947368,3619,109.084210526316,3894,4282,-72.9578947368421,-210.4,3967,3808,283.042105263158,38,0,1555,1771,0,4,4,4,4,4,4,4,4,4,4,4,4,4,4,4,4
"244",4095,65.6105263157895,4177,27.6631578947368,291.136842105263,3620,108.578947368421,3896,4279,-66.8105263157895,-211.421052631579,3971,3806,287.663157894737,39,0,1563,1771,0,4,4,4,4,4,4,4,4,4,4,4,4,4,4,4,4
"245",4092,68.6842105263158,4172,30.7368421052632,290.631578947368,3621,101.4,3897,4278,-65.7789473684211,-212.452631578947,3969,3803,286.126315789474,40,0,1559,1771,0,4,4,4,4,4,4,4,4,4,4,4,4,4,4,4,4
"246",4090,67.6631578947368,4172,30.7368421052632,288.578947368421,3618,94.2210526315789,3896,4278,-71.4210526315789,-212.957894736842,3962,3802,281.505263157895,41,0,1559,1775,0,4,4,4,4,4,4,4,4,4,4,4,4,4,4,4,4
"247",4090,63.0421052631579,4171,26.1263157894737,287.042105263158,3619,93.1894736842105,3896,4274,-74.5052631578947,-213.989473684211,3958,3803,280.484210526316,42,0,1563,1767,0,4,4,4,4,4,4,4,4,4,4,4,4,4,4,4,4
"248",4090,63.5578947368421,4170,22.5368421052632,288.063157894737,3618,96.2736842105263,3894,4271,-76.5473684210526,-214.505263157895,3961,3806,280.989473684211,43,0,1559,1771,0,4,4,4,4,4,4,4,4,4,4,4,4,4,4,4,4
"249",4085,58.4315789473684,4170,16.8947368421053,286.526315789474,3609,96.2736842105263,3883,4271,-87.8315789473684,-212.957894736842,3952,3803,271.252631578947,44,0,1559,1771,0,4,4,4,4,4,4,4,4,4,4,4,4,4,4,4,4
"250",4083,48.1684210526316,4170,10.7368421052632,284.473684210526,3603,94.2210526315789,3873,4273,-97.0631578947368,-211.936842105263,3938,3804,258.936842105263,45,0,1559,1771,0,4,4,4,4,4,4,4,4,4,4,4,4,4,4,4,4
"251",4090,53.8105263157895,4170,12.7894736842105,287.042105263158,3606,93.7052631578947,3878,4276,-90.4,-212.957894736842,3942,3813,265.094736842105,46,0,1559,1771,0,4,4,4,4,4,4,4,4,4,4,4,4,4,4,4,4
"252",4090,64.5789473684211,4170,17.9157894736842,286.526315789474,3609,93.7052631578947,3884,4277,-82.7052631578947,-213.473684210526,3949,3811,273.810526315789,47,0,1559,1775,0,4,4,4,4,4,4,4,4,4,4,4,4,4,4,4,4
"253",4083,54.8421052631579,4168,10.2210526315789,282.936842105263,3604,93.1894736842105,3871,4276,-95.0105263157895,-212.452631578947,3942,3805,259.968421052632,48,0,1563,1771,0,4,4,4,4,4,4,4,4,4,4,4,4,4,4,4,4
"254",4083,39.9684210526316,4170,0.484210526315789,285.494736842105,3599,93.7052631578947,3862,4277,-106.810526315789,-211.936842105263,3934,3810,248.168421052632,49,0,1555,1767,0,4,4,4,4,4,4,4,4,4,4,4,4,4,4,4,4
"255",4084,48.6842105263158,4172,7.14736842105263,289.084210526316,3602,96.2736842105263,3874,4277,-98.0947368421053,-211.421052631579,3941,3817,258.936842105263,50,0,1563,1775,0,4,4,4,4,4,4,4,4,4,4,4,4,4,4,4,4
"256",4083,58.9368421052632,4172,16.3789473684211,287.042105263158,3607,96.778947368421,3890,4277,-89.3684210526316,-210.915789473684,3947,3815,268.168421052632,51,0,1563,1767,0,4,4,4,4,4,4,4,4,4,4,4,4,4,4,4,4
"257",4083,51.2526315789474,4170,14.3263157894737,287.042105263158,3606,93.7052631578947,3889,4277,-92.9578947368421,-211.421052631579,3945,3813,265.094736842105,52,0,1555,1771,0,4,4,4,4,4,4,4,4,4,4,4,4,4,4,4,4
"258",4083,42.5368421052632,4170,10.2210526315789,288.578947368421,3602,93.1894736842105,3881,4275,-96.5473684210526,-212.957894736842,3941,3814,260.484210526316,53,0,1559,1771,0,4,4,4,4,4,4,4,4,4,4,4,4,4,4,4,4
"259",4081,50.2210526315789,4170,11.7578947368421,284.989473684211,3605,93.7052631578947,3882,4273,-95.5263157894737,-212.957894736842,3942,3815,262.021052631579,54,0,1559,1771,0,4,4,4,4,4,4,4,4,4,4,4,4,4,4,4,4
"260",4081,59.9684210526316,4170,12.7894736842105,281.4,3607,93.1894736842105,3884,4272,-93.9894736842105,-212.452631578947,3942,3815,265.094736842105,55,0,1559,1771,0,4,4,4,4,4,4,4,4,4,4,4,4,4,4,4,4
"261",4083,57.9157894736842,4171,10.7368421052632,282.936842105263,3611,92.6842105263158,3882,4274,-95.0105263157895,-211.421052631579,3943,3816,265.610526315789,56,0,1555,1775,0,4,4,4,4,4,4,4,4,4,4,4,4,4,4,4,4
"262",4084,59.4526315789474,4172,14.8421052631579,287.042105263158,3617,94.7263157894737,3886,4277,-91.4210526315789,-211.421052631579,3950,3823,269.2,57,0,1563,1771,0,4,4,4,4,4,4,4,4,4,4,4,4,4,4,4,4
"263",4083,59.4526315789474,4173,15.3473684210526,287.042105263158,3614,95.2421052631579,3890,4272,-90.9157894736842,-212.957894736842,3950,3826,268.684210526316,58,0,1555,1771,0,4,4,4,4,4,4,4,4,4,4,4,4,4,4,4,4
"264",4077,50.2210526315789,4171,9.71578947368421,281.4,3605,92.6842105263158,3881,4266,-98.6,-215.010526315789,3940,3821,260.484210526316,59,0,1559,1775,0,4,4,4,4,4,4,4,4,4,4,4,4,4,4,4,4
"265",4076,45.6105263157895,4170,7.66315789473684,276.273684210526,3604,89.6,3875,4266,-103.726315789474,-214.505263157895,3939,3819,257.915789473684,60,0,1559,1771,0,4,4,4,4,4,4,4,4,4,4,4,4,4,4,4,4
"266",4081,47.6631578947368,4171,7.66315789473684,275.242105263158,3606,91.1368421052632,3878,4268,-103.726315789474,-213.473684210526,3941,3826,258.936842105263,61,0,1559,1775,0,4,4,4,4,4,4,4,4,4,4,4,4,4,4,4,4
"267",4079,46.1263157894737,4171,7.14736842105263,275.242105263158,3604,92.6842105263158,3877,4266,-103.726315789474,-214.505263157895,3935,3829,254.842105263158,62,0,1559,1771,0,4,4,4,4,4,4,4,4,4,4,4,4,4,4,4,4
"268",4075,46.1263157894737,4170,10.7368421052632,274.726315789474,3603,91.1368421052632,3876,4266,-102.705263157895,-215.010526315789,3935,3828,256.378947368421,63,0,1559,1775,0,4,4,4,4,4,4,4,4,4,4,4,4,4,4,4,4
"269",4076,47.1473684210526,4170,13.3052631578947,274.221052631579,3605,89.6,3877,4266,-103.221052631579,-216.042105263158,3939,3830,259.452631578947,64,0,1559,1771,441,4,4,4,4,4,4,4,4,4,4,4,4,4,4,4,4
"270",4080,47.6631578947368,4172,13.3052631578947,275.242105263158,3607,91.1368421052632,3877,4266,-103.726315789474,-217.063157894737,3937,3832,256.894736842105,65,0,1555,1775,538,4,4,4,4,4,4,4,4,4,4,4,4,4,4,4,4
"271",4078,49.7157894736842,4173,12.7894736842105,275.242105263158,3607,92.1684210526316,3880,4266,-100.136842105263,-216.547368421053,3939,3831,260.484210526316,66,0,1563,1771,523,4,4,4,4,4,4,4,4,4,4,4,4,4,4,4,4
"272",4079,49.2,4172,13.8105263157895,275.242105263158,3607,92.6842105263158,3880,4265,-97.0631578947368,-215.010526315789,3944,3835,266.631578947368,67,0,1559,1771,548,4,4,4,4,4,4,4,4,4,4,4,4,4,4,4,4
"273",4083,48.1684210526316,4173,22.5368421052632,279.863157894737,3611,94.2210526315789,3885,4266,-96.0421052631579,-213.473684210526,3944,3846,266.126315789474,68,0,1559,1775,509,4,4,4,4,4,4,4,4,4,4,4,4,4,4,4,4
"274",4084,51.2526315789474,4180,31.7578947368421,284.989473684211,3619,94.7263157894737,3894,4266,-92.9578947368421,-212.957894736842,3949,3848,269.2,69,0,1559,1771,451,4,4,4,4,4,4,4,4,4,4,4,4,4,4,4,4
"275",4083,54.3263157894737,4184,32.7894736842105,284.473684210526,3619,95.2421052631579,3894,4264,-86.8105263157895,-212.957894736842,3956,3845,275.347368421053,70,0,1559,1775,446,4,4,4,4,4,4,4,4,4,4,4,4,4,4,4,4
"276",4084,61.5052631578947,4183,42.0210526315789,286.010526315789,3622,96.778947368421,3898,4268,-78.0947368421053,-212.452631578947,3962,3853,280.989473684211,71,0,1559,1771,760,4,4,4,4,4,4,4,4,4,4,4,4,4,4,4,4
"277",4085,62.5368421052632,4184,47.6631578947368,287.042105263158,3625,95.7578947368421,3902,4271,-80.1368421052632,-212.957894736842,3961,3862,279.452631578947,72,0,1559,1775,790,4,4,4,4,4,4,4,4,4,4,4,4,4,4,4,4
"278",4079,46.6315789473684,4182,29.7157894736842,276.273684210526,3607,94.2210526315789,3887,4266,-98.0947368421053,-215.010526315789,3942,3852,262.536842105263,73,0,1559,1771,753,4,4,4,4,4,4,4,4,4,4,4,4,4,4,4,4
"279",4075,37.4,4178,16.8947368421053,269.6,3592,93.1894736842105,3872,4263,-111.421052631579,-216.042105263158,3924,3845,246.126315789474,74,0,1559,1771,596,4,4,4,4,4,4,4,4,4,4,4,4,4,4,4,4
"280",4075,42.5368421052632,4180,25.0947368421053,274.221052631579,3601,91.6526315789474,3876,4266,-109.884210526316,-215.526315789474,3925,3854,244.073684210526,75,0,1559,1771,579,4,4,4,4,4,4,4,4,4,4,4,4,4,4,4,4
"281",4076,43.0421052631579,4182,29.7157894736842,275.757894736842,3606,95.2421052631579,3879,4265,-105.273684210526,-215.526315789474,3929,3862,249.715789473684,76,0,1559,1771,580,4,4,4,4,4,4,4,4,4,4,4,4,4,4,4,4
"282",4079,41.5052631578947,4182,27.6631578947368,276.273684210526,3602,105.494736842105,3876,4265,-102.705263157895,-215.010526315789,3927,3862,256.378947368421,77,0,1555,1771,667,4,4,4,4,4,4,4,4,4,4,4,4,4,4,4,4
"283",4079,40.9894736842105,4183,28.1684210526316,277.294736842105,3603,108.063157894737,3877,4268,-103.726315789474,-213.473684210526,3926,3862,255.863157894737,78,0,1563,1771,596,4,4,4,4,4,4,4,4,4,4,4,4,4,4,4,4
"284",4081,39.9684210526316,4184,27.1473684210526,276.273684210526,3605,103.957894736842,3878,4268,-104.242105263158,-213.989473684211,3925,3865,252.273684210526,79,0,1559,1771,579,4,4,4,4,4,4,4,4,4,4,4,4,4,4,4,4
"285",4083,42.5368421052632,4183,28.6842105263158,277.294736842105,3605,107.042105263158,3879,4267,-102.189473684211,-214.505263157895,3926,3872,258.936842105263,80,0,1559,1775,580,4,4,4,4,4,4,4,4,4,4,4,4,4,4,4,4
"286",4081,46.6315789473684,4185,32.7894736842105,277.294736842105,3607,110.631578947368,3883,4269,-99.1157894736842,-212.957894736842,3930,3874,267.147368421053,81,0,1559,1771,667,4,4,4,4,4,4,4,4,4,4,4,4,4,4,4,4
"287",4076,45.6105263157895,4183,33.3052631578947,275.757894736842,3607,107.042105263158,3883,4275,-100.136842105263,-212.957894736842,3931,3869,260.989473684211,82,0,1559,1771,596,4,4,4,4,4,4,4,4,4,4,4,4,4,4,4,4
"288",4076,39.9684210526316,4183,29.2,274.726315789474,3603,107.042105263158,3873,4277,-108.863157894737,-218.094736842105,3922,3867,251.757894736842,83,0,1559,1767,579,4,4,4,4,4,4,4,4,4,4,4,4,4,4,4,4
"289",4077,31.7578947368421,4182,20.4842105263158,274.221052631579,3595,108.063157894737,3863,4271,-120.136842105263,-224.757894736842,3911,3868,247.663157894737,84,0,1559,1767,580,4,4,4,4,4,4,4,4,4,4,4,4,4,4,4,4
"290",4073,28.1684210526316,4175,13.8105263157895,270.631578947368,3588,99.3473684210526,3861,4268,-125.273684210526,-226.810526315789,3907,3866,242.536842105263,85,0,1559,1767,667,4,4,4,4,4,4,4,4,4,4,4,4,4,4,4,4
"291",4068,27.1473684210526,4169,13.8105263157895,265.494736842105,3589,91.6526315789474,3859,4272,-124.757894736842,-227.831578947368,3901,3863,235.863157894737,86,0,1559,1767,596,4,4,4,4,4,4,4,4,4,4,4,4,4,4,4,4
"292",4066,24.0736842105263,4169,13.8105263157895,264.989473684211,3589,95.7578947368421,3854,4273,-128.347368421053,-230.4,3894,3863,230.221052631579,87,0,1559,1771,579,4,4,4,4,4,4,4,4,4,4,4,4,4,4,4,4
"293",4069,27.1473684210526,4176,12.2736842105263,270.115789473684,3588,105.494736842105,3855,4275,-127.831578947368,-228.863157894737,3902,3864,233.810526315789,88,0,1559,1767,580,4,4,4,4,4,4,4,4,4,4,4,4,4,4,4,4
"294",4071,31.2526315789474,4183,15.3473684210526,273.18947368421,3591,110.115789473684,3862,4279,-120.136842105263,-225.273684210526,3913,3867,241.505263157895,89,0,1559,1771,667,4,4,4,4,4,4,4,4,4,4,4,4,4,4,4,4
"295",4068,25.0947368421053,4176,15.3473684210526,270.631578947368,3590,100.884210526316,3863,4278,-120.136842105263,-227.315789473684,3905,3866,239.452631578947,90,0,1559,1771,596,4,4,4,4,4,4,4,4,4,4,4,4,4,4,4,4
"296",4066,20.4842105263158,4168,10.7368421052632,270.631578947368,3586,93.7052631578947,3860,4273,-127.831578947368,-229.368421052632,3892,3864,230.736842105263,91,0,1559,1771,579,4,4,4,4,4,4,4,4,4,4,4,4,4,4,4,4
"297",4070,26.1263157894737,4172,11.7578947368421,270.631578947368,3588,100.368421052632,3859,4274,-127.315789473684,-227.831578947368,3897,3865,232.789473684211,92,0,1563,1767,580,4,4,4,4,4,4,4,4,4,4,4,4,4,4,4,4
"298",4075,30.7368421052632,4178,15.3473684210526,271.652631578947,3591,108.063157894737,3863,4278,-116.042105263158,-227.315789473684,3911,3867,245.094736842105,93,0,1559,1775,667,4,4,4,4,4,4,4,4,4,4,4,4,4,4,4,4
"299",4072,30.2210526315789,4175,18.4315789473684,272.684210526316,3590,105.494736842105,3869,4276,-109.884210526316,-228.863157894737,3913,3865,247.663157894737,94,0,1563,1771,596,4,4,4,4,4,4,4,4,4,4,4,4,4,4,4,4
"300",4068,30.2210526315789,4172,20.9894736842105,268.578947368421,3591,101.905263157895,3869,4269,-110.915789473684,-229.884210526316,3910,3864,246.631578947368,95,0,1559,1775,579,4,4,4,4,4,4,4,4,4,4,4,4,4,4,4,4
"301",4069,30.2210526315789,4172,18.9368421052632,262.421052631579,3591,99.3473684210526,3866,4266,-115.010526315789,-229.884210526316,3912,3866,245.094736842105,96,0,1563,1775,580,4,4,4,4,4,4,4,4,4,4,4,4,4,4,4,4
"302",4069,25.0947368421053,4173,12.2736842105263,259.863157894737,3580,95.2421052631579,3862,4268,-123.726315789474,-230.915789473684,3903,3865,238.936842105263,97,0,1559,1771,667,4,4,4,4,4,4,4,4,4,4,4,4,4,4,4,4
"303",4066,21.5052631578947,4172,6.63157894736842,261.905263157895,3570,98.8315789473684,3855,4270,-131.421052631579,-230.4,3891,3863,232.273684210526,98,0,1559,1775,596,4,4,4,4,4,4,4,4,4,4,4,4,4,4,4,4
"304",4066,19.4526315789474,4171,0.989473684210526,261.905263157895,3570,106.010526315789,3850,4266,-135.010526315789,-230.4,3891,3864,224.578947368421,99,0,1559,1771,579,4,4,4,4,4,4,4,4,4,4,4,4,4,4,4,4
"305",4066,16.8947368421053,4172,-3.62105263157895,259.347368421053,3569,104.473684210526,3847,4264,-136.547368421053,-231.936842105263,3890,3865,217.4,100,0,1559,1771,580,4,4,4,4,4,4,4,4,4,4,4,4,4,4,4,4
"306",4063,17.9157894736842,4171,-3.10526315789474,258.831578947368,3563,96.778947368421,3848,4267,-136.042105263158,-232.452631578947,3887,3862,218.431578947368,101,0,1559,1771,667,4,4,4,4,4,4,4,4,4,4,4,4,4,4,4,4
"307",4059,19.4526315789474,4170,-1.56842105263158,260.368421052632,3560,95.2421052631579,3845,4267,-137.578947368421,-234.505263157895,3888,3862,220.484210526316,102,0,1563,1771,596,4,4,4,4,4,4,4,4,4,4,4,4,4,4,4,4
"308",4058,19.9684210526316,4170,-3.62105263157895,257.810526315789,3564,96.2736842105263,3839,4266,-140.652631578947,-239.115789473684,3885,3863,216.378947368421,103,0,1559,1767,579,4,4,4,4,4,4,4,4,4,4,4,4,4,4,4,4
"309",4058,22.0210526315789,4170,-5.15789473684211,255.242105263158,3569,94.2210526315789,3840,4264,-140.136842105263,-243.726315789474,3884,3861,216.378947368421,104,0,1559,1771,580,4,4,4,4,4,4,4,4,4,4,4,4,4,4,4,4
"310",4059,27.6631578947368,4172,2.02105263157895,258.831578947368,3573,94.7263157894737,3848,4265,-132.452631578947,-239.631578947368,3895,3861,228.684210526316,105,0,1563,1767,667,4,4,4,4,4,4,4,4,4,4,4,4,4,4,4,4
"311",4062,35.8631578947368,4173,12.2736842105263,260.368421052632,3577,96.778947368421,3851,4269,-123.221052631579,-230.915789473684,3908,3863,240.484210526316,106,0,1559,1771,596,4,4,4,4,4,4,4,4,4,4,4,4,4,4,4,4
"312",4063,43.5578947368421,4172,13.8105263157895,258.831578947368,3581,95.7578947368421,3853,4271,-119.631578947368,-230.915789473684,3909,3863,238.936842105263,107,0,1559,1771,579,4,4,4,4,4,4,4,4,4,4,4,4,4,4,4,4
"313",4064,44.5789473684211,4175,10.7368421052632,263.452631578947,3584,99.8631578947368,3857,4272,-119.115789473684,-233.989473684211,3907,3861,237.4,108,0,1559,1767,580,4,4,4,4,4,4,4,4,4,4,4,4,4,4,4,4
"314",4066,43.0421052631579,4179,17.4,268.063157894737,3587,107.042105263158,3868,4274,-112.957894736842,-230.915789473684,3915,3863,249.715789473684,109,0,1559,1771,667,4,4,4,4,4,4,4,4,4,4,4,4,4,4,4,4
"315",4069,51.2526315789474,4182,27.6631578947368,269.084210526316,3588,107.042105263158,3879,4276,-104.757894736842,-226.810526315789,3926,3865,258.431578947368,110,0,1559,1767,596,4,4,4,4,4,4,4,4,4,4,4,4,4,4,4,4
"316",4072,61.5052631578947,4184,29.7157894736842,271.136842105263,3589,107.042105263158,3881,4277,-99.6315789473684,-228.863157894737,3927,3864,259.968421052632,111,0,1559,1771,579,4,4,4,4,4,4,4,4,4,4,4,4,4,4,4,4
"317",4073,62.0210526315789,4185,30.2210526315789,273.705263157895,3595,111.136842105263,3882,4277,-94.5052631578947,-229.368421052632,3933,3864,266.126315789474,112,0,1559,1771,580,4,4,4,4,4,4,4,4,4,4,4,4,4,4,4,4
"318",4073,59.4526315789474,4184,32.7894736842105,273.705263157895,3601,110.631578947368,3884,4277,-91.9368421052632,-227.831578947368,3939,3865,267.663157894737,113,0,1559,1767,667,4,4,4,4,4,4,4,4,4,4,4,4,4,4,4,4
"319",4074,63.5578947368421,4184,30.2210526315789,274.221052631579,3600,110.115789473684,3881,4277,-97.0631578947368,-228.347368421053,3933,3865,259.968421052632,114,0,1559,1771,596,4,4,4,4,4,4,4,4,4,4,4,4,4,4,4,4
"320",4081,73.3052631578947,4186,29.7157894736842,276.778947368421,3603,117.294736842105,3883,4280,-95.5263157894737,-226.810526315789,3934,3865,261.505263157895,115,0,1563,1767,579,4,4,4,4,4,4,4,4,4,4,4,4,4,4,4,4
"321",4085,77.4,4188,34.8421052631579,280.368421052632,3608,119.347368421053,3895,4282,-88.8631578947368,-224.242105263158,3943,3866,269.715789473684,116,0,1555,1771,580,4,4,4,4,4,4,4,4,4,4,4,4,4,4,4,4
"322",4079,77.4,4186,33.3052631578947,279.347368421053,3608,113.189473684211,3898,4280,-90.9157894736842,-225.778947368421,3942,3864,267.663157894737,117,0,1559,1775,667,4,4,4,4,4,4,4,4,4,4,4,4,4,4,4,4
"323",4077,76.3789473684211,4184,29.2,274.221052631579,3604,114.726315789474,3891,4277,-97.0631578947368,-228.347368421053,3936,3859,261.505263157895,118,0,1559,1767,596,4,4,4,4,4,4,4,4,4,4,4,4,4,4,4,4
"324",4082,78.9368421052632,4185,29.7157894736842,275.242105263158,3607,123.957894736842,3890,4278,-93.9894736842105,-227.315789473684,3937,3862,264.073684210526,119,0,1555,1775,579,4,4,4,4,4,4,4,4,4,4,4,4,4,4,4,4
"325",4084,87.1473684210526,4185,29.7157894736842,278.315789473684,3614,124.989473684211,3893,4279,-87.3157894736842,-226.294736842105,3942,3861,272.789473684211,120,0,1559,1771,580,4,4,4,4,4,4,4,4,4,4,4,4,4,4,4,4
"326",4085,93.3052631578947,4185,36.3789473684211,275.757894736842,3619,120.368421052632,3895,4278,-83.2210526315789,-227.315789473684,3946,3852,278.936842105263,121,0,1559,1767,667,4,4,4,4,4,4,4,4,4,4,4,4,4,4,4,4
"327",4090,92.2736842105263,4186,40.9894736842105,276.778947368421,3619,122.421052631579,3896,4278,-81.1684210526316,-226.294736842105,3946,3848,279.968421052632,122,0,1563,1767,596,4,4,4,4,4,4,4,4,4,4,4,4,4,4,4,4
"328",4091,91.2526315789474,4186,34.8421052631579,284.989473684211,3621,126.010526315789,3893,4281,-82.1894736842105,-225.778947368421,3944,3851,277.915789473684,123,0,1559,1763,579,4,4,4,4,4,4,4,4,4,4,4,4,4,4,4,4
"329",4092,91.7578947368421,4189,38.4315789473684,289.084210526316,3623,127.547368421053,3902,4283,-78.6,-223.221052631579,3950,3851,282.536842105263,124,0,1567,1743,580,4,4,4,4,4,4,4,4,4,4,4,4,4,4,4,4
"330",4101,92.7894736842105,4194,50.2210526315789,288.063157894737,3622,133.705263157895,3915,4283,-72.4526315789474,-214.505263157895,3961,3848,292.273684210526,125,0,1563,1731,667,4,4,4,4,4,4,4,4,4,4,4,4,4,4,4,4
"331",4102,96.8947368421053,4193,47.1473684210526,288.578947368421,3624,136.778947368421,3916,4283,-71.4210526315789,-212.957894736842,3963,3847,293.305263157895,126,0,1567,1727,596,4,4,4,4,4,4,4,4,4,4,4,4,4,4,4,4
"332",4094,86.1263157894737,4187,32.7894736842105,288.063157894737,3620,132.684210526316,3909,4282,-80.1368421052632,-224.757894736842,3951,3846,283.042105263158,127,0,1567,1719,579,4,4,4,4,4,4,4,4,4,4,4,4,4,4,4,4
"333",4091,61.5052631578947,4186,21.5052631578947,286.526315789474,3605,127.042105263158,3899,4282,-95.5263157894737,-225.778947368421,3931,3844,267.147368421053,128,0,1567,1723,580,4,4,4,4,4,4,4,4,4,4,4,4,4,4,4,4
"334",4096,61.5052631578947,4189,21.5052631578947,287.547368421053,3603,128.578947368421,3895,4281,-97.5789473684211,-217.063157894737,3930,3839,262.536842105263,0,0,1567,1731,441,4,4,4,4,4,4,4,4,4,4,4,4,4,4,4,4
"335",4103,80.4842105263158,4188,30.7368421052632,289.084210526316,3619,127.042105263158,3897,4279,-84.7578947368421,-218.6,3944,3833,274.326315789474,1,0,1567,1735,538,4,4,4,4,4,4,4,4,4,4,4,4,4,4,4,4
"336",4104,81.5052631578947,4188,31.2526315789474,289.6,3626,124.989473684211,3896,4279,-79.1157894736842,-222.189473684211,3946,3832,279.968421052632,2,0,1567,1735,523,4,4,4,4,4,4,4,4,4,4,4,4,4,4,4,4
"337",4104,74.8421052631579,4189,29.2,291.652631578947,3623,132.684210526316,3892,4282,-84.2421052631579,-215.010526315789,3944,3833,275.347368421053,3,0,1567,1739,548,4,4,4,4,4,4,4,4,4,4,4,4,4,4,4,4
"338",4107,78.4315789473684,4190,39.4526315789474,292.684210526316,3625,140.368421052632,3904,4284,-79.6315789473684,-211.421052631579,3958,3831,284.073684210526,4,0,1571,1735,509,4,4,4,4,4,4,4,4,4,4,4,4,4,4,4,4
"339",4101,80.4842105263158,4187,39.4526315789474,289.084210526316,3625,137.810526315789,3912,4280,-76.0421052631579,-220.136842105263,3961,3829,289.715789473684,5,0,1563,1743,451,4,4,4,4,4,4,4,4,4,4,4,4,4,4,4,4
"340",4090,84.5789473684211,4185,29.2,287.042105263158,3619,137.294736842105,3906,4276,-80.6526315789474,-224.242105263158,3949,3828,279.968421052632,6,0,1567,1743,446,4,4,4,4,4,4,4,4,4,4,4,4,4,4,4,4
"341",4095,94.3263157894737,4186,38.9368421052632,289.6,3622,142.936842105263,3912,4279,-72.4526315789474,-217.578947368421,3959,3829,288.168421052632,7,0,1563,1747,760,4,4,4,4,4,4,4,4,4,4,4,4,4,4,4,4
"342",4100,95.3473684210526,4187,51.7578947368421,291.652631578947,3624,143.957894736842,3927,4283,-61.6842105263158,-215.526315789474,3976,3829,304.578947368421,8,0,1563,1755,790,4,4,4,4,4,4,4,4,4,4,4,4,4,4,4,4
"343",4091,97.9157894736842,4185,47.6631578947368,288.063157894737,3622,146.010526315789,3927,4281,-63.2210526315789,-219.115789473684,3973,3831,303.042105263158,9,0,1563,1751,751,4,4,4,4,4,4,4,4,4,4,4,4,4,4,4,4
"344",4093,110.221052631579,4190,51.2526315789474,291.136842105263,3629,153.189473684211,3924,4285,-59.1157894736842,-216.547368421053,3973,3831,304.073684210526,10,0,1563,1751,596,4,4,4,4,4,4,4,4,4,4,4,4,4,4,4,4
"345",4105,115.863157894737,4201,65.0947368421053,302.421052631579,3637,157.294736842105,3929,4292,-48.8631578947368,-210.915789473684,3982,3828,313.305263157895,11,0,1559,1755,579,4,4,4,4,4,4,4,4,4,4,4,4,4,4,4,4
"346",4104,108.684210526316,4199,59.9684210526316,300.368421052632,3635,155.242105263158,3928,4287,-52.4526315789474,-214.505263157895,3978,3829,306.126315789474,12,0,1563,1755,580,4,4,4,4,4,4,4,4,4,4,4,4,4,4,4,4
"347",4099,113.305263157895,4188,50.2210526315789,291.136842105263,3631,154.221052631579,3926,4284,-62.7052631578947,-216.042105263158,3970,3829,297.4,13,0,1567,1759,667,4,4,4,4,4,4,4,4,4,4,4,4,4,4,4,4
"348",4106,124.073684210526,4185,52.7894736842105,292.168421052632,3632,154.726315789474,3928,4289,-61.1684210526316,-215.526315789474,3973,3823,304.578947368421,14,0,1559,1763,596,4,4,4,4,4,4,4,4,4,4,4,4,4,4,4,4
"349",4103,118.431578947368,4187,51.7578947368421,292.168421052632,3630,151.652631578947,3926,4284,-59.1157894736842,-222.705263157895,3974,3816,302.536842105263,15,0,1563,1767,579,4,4,4,4,4,4,4,4,4,4,4,4,4,4,4,4
"350",4095,108.168421052632,4184,47.6631578947368,286.010526315789,3628,149.6,3924,4277,-63.2210526315789,-227.831578947368,3973,3815,291.252631578947,16,0,1559,1767,0,4,4,4,4,4,4,4,4,4,4,4,4,4,4,4,4
"351",4100,113.305263157895,4183,49.2,287.042105263158,3629,154.221052631579,3925,4282,-61.1684210526316,-223.221052631579,3973,3817,294.842105263158,17,0,1559,1767,0,4,4,4,4,4,4,4,4,4,4,4,4,4,4,4,4
"352",4106,122.536842105263,4187,53.8105263157895,291.652631578947,3628,155.757894736842,3926,4285,-52.9578947368421,-217.063157894737,3974,3817,305.094736842105,18,0,1559,1767,0,4,4,4,4,4,4,4,4,4,4,4,4,4,4,4,4
"353",4106,123.042105263158,4187,59.4526315789474,291.136842105263,3630,154.221052631579,3928,4284,-48.8631578947368,-216.042105263158,3982,3819,309.715789473684,19,0,1559,1771,0,4,4,4,4,4,4,4,4,4,4,4,4,4,4,4,4
"354",4106,123.042105263158,4186,65.0947368421053,291.652631578947,3636,160.368421052632,3929,4284,-47.8315789473684,-216.547368421053,3989,3821,314.842105263158,20,0,1555,1775,0,4,4,4,4,4,4,4,4,4,4,4,4,4,4,4,4
"355",4106,123.557894736842,4186,65.6105263157895,292.684210526316,3639,166.010526315789,3930,4284,-42.1894736842105,-216.042105263158,3993,3822,322.021052631579,21,0,1559,1771,0,4,4,4,4,4,4,4,4,4,4,4,4,4,4,4,4
"356",4107,124.073684210526,4186,65.6105263157895,293.705263157895,3641,160.368421052632,3929,4284,-37.5789473684211,-216.547368421053,3996,3821,323.557894736842,22,0,1559,1775,0,4,4,4,4,4,4,4,4,4,4,4,4,4,4,4,4
"357",4107,124.578947368421,4186,66.1263157894737,293.18947368421,3639,156.778947368421,3928,4285,-41.1684210526316,-217.063157894737,3995,3819,319.968421052632,23,0,1559,1771,0,4,4,4,4,4,4,4,4,4,4,4,4,4,4,4,4
"358",4106,124.073684210526,4186,63.0421052631579,290.115789473684,3640,161.905263157895,3928,4281,-45.2736842105263,-218.6,3990,3818,317.4,24,0,1555,1771,0,4,4,4,4,4,4,4,4,4,4,4,4,4,4,4,4
"359",4105,123.042105263158,4185,63.5578947368421,288.063157894737,3641,161.905263157895,3927,4276,-45.2736842105263,-223.726315789474,3990,3818,315.863157894737,25,0,1559,1771,0,4,4,4,4,4,4,4,4,4,4,4,4,4,4,4,4
"360",4106,122.021052631579,4183,64.5789473684211,289.084210526316,3638,157.810526315789,3933,4274,-45.2736842105263,-227.315789473684,3993,3817,317.915789473684,26,0,1555,1771,0,4,4,4,4,4,4,4,4,4,4,4,4,4,4,4,4
"361",4106,120.989473684211,4183,62.5368421052632,289.084210526316,3634,161.4,3938,4274,-46.2947368421053,-224.242105263158,3991,3815,318.431578947368,27,0,1559,1779,0,4,4,4,4,4,4,4,4,4,4,4,4,4,4,4,4
"362",4105,119.968421052632,4184,59.9684210526316,288.063157894737,3633,164.989473684211,3933,4275,-47.8315789473684,-221.684210526316,3989,3814,313.305263157895,28,0,1559,1771,0,4,4,4,4,4,4,4,4,4,4,4,4,4,4,4,4
"363",4105,119.968421052632,4184,58.9368421052632,289.6,3635,163.957894736842,3925,4277,-50.4,-224.242105263158,3988,3814,309.715789473684,29,0,1555,1779,0,4,4,4,4,4,4,4,4,4,4,4,4,4,4,4,4
"364",4110,124.073684210526,4186,60.9894736842105,291.652631578947,3636,166.010526315789,3926,4278,-46.2947368421053,-219.631578947368,3991,3816,314.326315789474,30,0,1559,1775,0,4,4,4,4,4,4,4,4,4,4,4,4,4,4,4,4
"365",4114,126.631578947368,4187,68.6842105263158,292.684210526316,3642,171.652631578947,3936,4279,-36.5473684210526,-213.989473684211,3999,3818,322.021052631579,31,0,1559,1775,0,4,4,4,4,4,4,4,4,4,4,4,4,4,4,4,4
"366",4110,125.610526315789,4186,74.3263157894737,291.136842105263,3648,171.136842105263,3942,4278,-33.4736842105263,-222.189473684211,4006,3817,323.557894736842,32,0,1559,1771,0,4,4,4,4,4,4,4,4,4,4,4,4,4,4,4,4
"367",4112,131.757894736842,4185,74.3263157894737,290.631578947368,3651,169.084210526316,3941,4278,-34.5052631578947,-227.315789473684,4005,3817,328.168421052632,33,0,1555,1775,0,4,4,4,4,4,4,4,4,4,4,4,4,4,4,4,4
"368",4121,139.968421052632,4185,74.3263157894737,292.168421052632,3652,171.136842105263,3940,4279,-31.4210526315789,-219.115789473684,4008,3818,334.326315789474,34,0,1563,1771,0,4,4,4,4,4,4,4,4,4,4,4,4,4,4,4,4
"369",4118,138.431578947368,4184,76.8947368421053,290.631578947368,3652,170.115789473684,3943,4277,-30.4,-218.6,4013,3816,335.863157894737,35,0,1555,1775,0,4,4,4,4,4,4,4,4,4,4,4,4,4,4,4,4
"370",4109,135.347368421053,4184,77.9157894736842,288.578947368421,3653,167.042105263158,3945,4273,-31.9368421052632,-227.315789473684,4013,3815,335.863157894737,36,0,1559,1779,0,4,4,4,4,4,4,4,4,4,4,4,4,4,4,4,4
"371",4114,137.915789473684,4186,79.4526315789474,290.631578947368,3654,169.6,3943,4275,-23.7263157894737,-226.294736842105,4016,3817,338.936842105263,37,0,1559,1771,0,4,4,4,4,4,4,4,4,4,4,4,4,4,4,4,4
"372",4120,138.431578947368,4185,80.4842105263158,292.168421052632,3655,172.684210526316,3941,4278,-20.1368421052632,-222.705263157895,4021,3818,339.968421052632,38,0,1559,1775,0,4,4,4,4,4,4,4,4,4,4,4,4,4,4,4,4
"373",4115,135.347368421053,4184,77.9157894736842,290.631578947368,3654,171.652631578947,3939,4272,-28.8631578947368,-227.831578947368,4014,3816,337.915789473684,39,0,1555,1775,0,4,4,4,4,4,4,4,4,4,4,4,4,4,4,4,4
"374",4111,134.842105263158,4184,77.4,289.6,3653,171.136842105263,3943,4266,-25.2736842105263,-229.368421052632,4013,3814,339.452631578947,40,0,1559,1771,0,4,4,4,4,4,4,4,4,4,4,4,4,4,4,4,4
"375",4113,135.863157894737,4184,78.9368421052632,290.115789473684,3653,173.189473684211,3944,4268,-20.6526315789474,-225.273684210526,4016,3815,340.484210526316,41,0,1559,1775,0,4,4,4,4,4,4,4,4,4,4,4,4,4,4,4,4
"376",4112,135.863157894737,4183,77.9157894736842,290.115789473684,3651,172.684210526316,3941,4270,-26.2947368421053,-226.294736842105,4013,3814,337.915789473684,42,0,1559,1779,0,4,4,4,4,4,4,4,4,4,4,4,4,4,4,4,4
"377",4112,136.894736842105,4183,77.9157894736842,289.084210526316,3651,172.684210526316,3942,4266,-23.7263157894737,-228.347368421053,4013,3814,338.936842105263,43,0,1563,1771,0,4,4,4,4,4,4,4,4,4,4,4,4,4,4,4,4
"378",4110,136.894736842105,4181,78.4315789473684,288.063157894737,3652,172.168421052632,3944,4265,-22.1894736842105,-228.347368421053,4015,3814,337.915789473684,44,0,1555,1771,0,4,4,4,4,4,4,4,4,4,4,4,4,4,4,4,4
"379",4110,134.842105263158,4180,73.8105263157895,288.063157894737,3650,171.652631578947,3941,4267,-30.9157894736842,-228.347368421053,4008,3813,333.305263157895,45,0,1559,1775,0,4,4,4,4,4,4,4,4,4,4,4,4,4,4,4,4
"380",4117,138.431578947368,4184,76.8947368421053,290.115789473684,3653,176.778947368421,3941,4266,-24.7578947368421,-225.273684210526,4014,3813,339.452631578947,46,0,1559,1771,0,4,4,4,4,4,4,4,4,4,4,4,4,4,4,4,4
"381",4122,142.021052631579,4185,88.1684210526316,291.136842105263,3660,179.863157894737,3946,4265,-12.4526315789474,-223.221052631579,4028,3814,-338.6,47,0,1559,1771,0,4,4,4,4,4,4,4,4,4,4,4,4,4,4,4,4
"382",4115,140.484210526316,4180,90.2210526315789,289.6,3661,179.347368421053,3951,4266,-15.0105263157895,-224.757894736842,4029,3814,-339.115789473684,48,0,1559,1771,0,4,4,4,4,4,4,4,4,4,4,4,4,4,4,4,4
"383",4117,147.147368421053,4181,88.1684210526316,290.631578947368,3659,183.957894736842,3955,4267,-15.0105263157895,-218.6,4028,3817,-340.652631578947,49,0,1563,1771,0,4,4,4,4,4,4,4,4,4,4,4,4,4,4,4,4
"384",4123,153.810526315789,4185,90.7368421052632,292.168421052632,3660,186.526315789474,3954,4268,-11.4210526315789,-213.473684210526,4031,3817,-337.578947368421,50,0,1559,1767,0,4,4,4,4,4,4,4,4,4,4,4,4,4,4,4,4
"385",4120,148.168421052632,4183,89.7157894736842,289.6,3659,180.368421052632,3947,4267,-18.6,-219.631578947368,4028,3814,-340.136842105263,51,0,1559,1775,0,4,4,4,4,4,4,4,4,4,4,4,4,4,4,4,4
"386",4118,148.168421052632,4181,89.2,288.578947368421,3663,182.421052631579,3950,4267,-13.4736842105263,-220.652631578947,4032,3816,-337.063157894737,52,0,1563,1771,0,4,4,4,4,4,4,4,4,4,4,4,4,4,4,4,4
"387",4123,157.4,4184,98.4315789473684,290.631578947368,3667,189.6,3961,4267,0.368421052631579,-215.010526315789,4043,3818,-324.757894736842,53,0,1559,1775,0,4,4,4,4,4,4,4,4,4,4,4,4,4,4,4,4
"388",4123,159.452631578947,4185,107.147368421053,290.115789473684,3666,183.957894736842,3959,4267,1.4,-215.010526315789,4045,3815,-320.652631578947,54,0,1563,1771,0,4,4,4,4,4,4,4,4,4,4,4,4,4,4,4,4
"389",4122,158.936842105263,4184,108.168421052632,289.6,3666,175.242105263158,3957,4268,2.42105263157895,-215.010526315789,4050,3815,-319.115789473684,55,0,1559,1771,0,4,4,4,4,4,4,4,4,4,4,4,4,4,4,4,4
"390",4122,160.484210526316,4182,107.147368421053,290.115789473684,3667,176.273684210526,3965,4267,12.1684210526316,-215.526315789474,4059,3815,-318.6,56,0,1563,1771,0,4,4,4,4,4,4,4,4,4,4,4,4,4,4,4,4
"391",4120,163.042105263158,4181,107.147368421053,289.084210526316,3665,179.347368421053,3971,4265,14.7263157894737,-220.652631578947,4059,3813,-318.6,57,0,1559,1771,0,4,4,4,4,4,4,4,4,4,4,4,4,4,4,4,4
"392",4123,167.663157894737,4184,110.221052631579,289.084210526316,3668,180.884210526316,3974,4265,11.6526315789474,-220.136842105263,4057,3816,-311.421052631579,58,0,1559,1771,0,4,4,4,4,4,4,4,4,4,4,4,4,4,4,4,4
"393",4126,173.305263157895,4186,112.789473684211,290.115789473684,3672,183.957894736842,3975,4267,15.7578947368421,-216.547368421053,4062,3818,-307.315789473684,59,0,1559,1775,0,4,4,4,4,4,4,4,4,4,4,4,4,4,4,4,4
"394",4124,166.631578947368,4184,110.221052631579,290.631578947368,3669,181.905263157895,3972,4267,13.7052631578947,-215.010526315789,4060,3817,-317.063157894737,60,0,1559,1775,0,4,4,4,4,4,4,4,4,4,4,4,4,4,4,4,4
"395",4121,155.863157894737,4181,104.578947368421,290.115789473684,3661,174.221052631579,3972,4264,0.368421052631579,-216.547368421053,4048,3815,-326.810526315789,61,0,1559,1779,0,4,4,4,4,4,4,4,4,4,4,4,4,4,4,4,4
"396",4123,160.484210526316,4182,105.610526315789,288.063157894737,3663,173.189473684211,3974,4265,-0.136842105263158,-222.705263157895,4048,3816,-324.242105263158,62,0,1559,1771,0,4,4,4,4,4,4,4,4,4,4,4,4,4,4,4,4
"397",4124,173.305263157895,4183,111.252631578947,288.063157894737,3674,179.347368421053,3974,4266,13.7052631578947,-226.810526315789,4057,3816,-313.473684210526,63,0,1555,1775,0,4,4,4,4,4,4,4,4,4,4,4,4,4,4,4,4
"398",4122,173.810526315789,4185,111.757894736842,289.6,3674,180.368421052632,3975,4264,15.2421052631579,-225.273684210526,4061,3816,-308.347368421053,64,0,1563,1775,441,4,4,4,4,4,4,4,4,4,4,4,4,4,4,4,4
"399",4121,169.2,4182,108.168421052632,284.473684210526,3667,178.315789473684,3976,4262,4.47368421052632,-227.315789473684,4056,3816,-317.578947368421,65,0,1555,1775,538,4,4,4,4,4,4,4,4,4,4,4,4,4,4,4,4
"400",4122,171.757894736842,4173,106.631578947368,278.831578947368,3666,179.863157894737,3975,4262,2.42105263157895,-230.4,4051,3814,-322.18947368421,66,0,1559,1775,523,4,4,4,4,4,4,4,4,4,4,4,4,4,4,4,4
"401",4121,171.757894736842,4174,105.610526315789,282.421052631579,3666,179.863157894737,3974,4263,2.42105263157895,-227.831578947368,4046,3813,-321.168421052632,67,0,1559,1775,548,4,4,4,4,4,4,4,4,4,4,4,4,4,4,4,4
"402",4121,169.715789473684,4183,105.094736842105,288.578947368421,3666,179.863157894737,3973,4263,0.368421052631579,-226.294736842105,4049,3816,-324.757894736842,68,0,1559,1775,509,4,4,4,4,4,4,4,4,4,4,4,4,4,4,4,4
"403",4124,173.305263157895,4183,109.715789473684,288.578947368421,3671,183.452631578947,3974,4264,7.54736842105263,-226.294736842105,4058,3818,-318.6,69,0,1559,1775,451,4,4,4,4,4,4,4,4,4,4,4,4,4,4,4,4
"404",4126,173.305263157895,4179,111.757894736842,286.526315789474,3674,186.010526315789,3975,4263,14.7263157894737,-225.778947368421,4059,3817,-308.863157894737,70,0,1559,1775,446,4,4,4,4,4,4,4,4,4,4,4,4,4,4,4,4
"405",4124,172.273684210526,4183,108.684210526316,285.494736842105,3673,184.989473684211,3973,4262,12.6842105263158,-226.810526315789,4056,3816,-312.452631578947,71,0,1559,1771,758,4,4,4,4,4,4,4,4,4,4,4,4,4,4,4,4
"406",4123,177.915789473684,4184,112.273684210526,286.526315789474,3677,185.494736842105,3975,4262,13.1894736842105,-227.831578947368,4059,3817,-313.473684210526,72,0,1559,1775,790,4,4,4,4,4,4,4,4,4,4,4,4,4,4,4,4
"407",4123,185.610526315789,4180,122.536842105263,286.526315789474,3683,186.526315789474,3985,4261,20.3684210526316,-228.347368421053,4068,3817,-303.221052631579,73,0,1563,1771,750,4,4,4,4,4,4,4,4,4,4,4,4,4,4,4,4
"408",4123,187.663157894737,4182,125.610526315789,283.452631578947,3684,186.010526315789,3992,4261,25.4947368421053,-227.831578947368,4074,3816,-299.115789473684,74,0,1559,1775,596,4,4,4,4,4,4,4,4,4,4,4,4,4,4,4,4
"409",4123,185.094736842105,4182,122.021052631579,280.368421052632,3682,184.473684210526,3991,4262,26.5263157894737,-228.347368421053,4073,3816,-303.221052631579,75,0,1559,1771,579,4,4,4,4,4,4,4,4,4,4,4,4,4,4,4,4
"410",4121,184.578947368421,4175,122.536842105263,278.831578947368,3683,183.957894736842,3988,4261,26.5263157894737,-229.884210526316,4073,3817,-301.168421052632,76,0,1559,1767,580,4,4,4,4,4,4,4,4,4,4,4,4,4,4,4,4
"411",4121,190.221052631579,4175,126.631578947368,282.421052631579,3688,184.989473684211,3994,4259,30.1157894736842,-229.368421052632,4076,3815,-292.957894736842,77,0,1559,1771,667,4,4,4,4,4,4,4,4,4,4,4,4,4,4,4,4
"412",4123,193.810526315789,4183,128.168421052632,287.547368421053,3690,186.526315789474,3997,4262,33.1894736842105,-226.810526315789,4079,3818,-290.915789473684,78,0,1559,1771,596,4,4,4,4,4,4,4,4,4,4,4,4,4,4,4,4
"413",4123,191.252631578947,4184,126.126315789474,288.578947368421,3686,190.631578947368,3991,4265,31.1368421052632,-226.294736842105,4077,3829,-294.505263157895,79,0,1559,1771,579,4,4,4,4,4,4,4,4,4,4,4,4,4,4,4,4
"414",4125,187.663157894737,4182,125.094736842105,288.578947368421,3684,195.242105263158,3988,4263,30.1157894736842,-222.189473684211,4075,3832,-293.989473684211,80,0,1559,1767,580,4,4,4,4,4,4,4,4,4,4,4,4,4,4,4,4
"415",4128,187.663157894737,4185,125.094736842105,291.136842105263,3684,192.684210526316,3992,4264,31.6526315789474,-216.042105263158,4076,3829,-290.915789473684,81,0,1559,1771,667,4,4,4,4,4,4,4,4,4,4,4,4,4,4,4,4
"416",4126,185.610526315789,4186,124.073684210526,290.115789473684,3684,187.042105263158,3993,4262,29.6,-219.115789473684,4075,3829,-293.473684210526,82,0,1563,1767,596,4,4,4,4,4,4,4,4,4,4,4,4,4,4,4,4
"417",4122,178.936842105263,4183,124.073684210526,283.957894736842,3681,187.547368421053,3989,4253,20.8842105263158,-227.315789473684,4068,3826,-298.094736842105,83,0,1559,1763,579,4,4,4,4,4,4,4,4,4,4,4,4,4,4,4,4
"418",4119,171.252631578947,4182,118.936842105263,276.273684210526,3673,187.547368421053,3988,4248,14.2210526315789,-229.368421052632,4060,3818,-303.726315789474,84,0,1563,1763,580,4,4,4,4,4,4,4,4,4,4,4,4,4,4,4,4
"419",4119,169.715789473684,4181,115.347368421053,272.168421052632,3670,186.010526315789,3988,4250,13.1894736842105,-227.831578947368,4058,3818,-307.831578947368,85,0,1559,1763,667,4,4,4,4,4,4,4,4,4,4,4,4,4,4,4,4
"420",4120,173.810526315789,4183,119.968421052632,279.863157894737,3673,187.042105263158,3988,4253,16.2736842105263,-227.831578947368,4062,3828,-305.273684210526,86,0,1563,1759,596,4,4,4,4,4,4,4,4,4,4,4,4,4,4,4,4
"421",4120,175.863157894737,4184,120.989473684211,286.526315789474,3674,188.578947368421,3986,4255,16.7789473684211,-226.294736842105,4062,3831,-303.726315789474,87,0,1559,1763,579,4,4,4,4,4,4,4,4,4,4,4,4,4,4,4,4
"422",4120,173.810526315789,4184,118.936842105263,282.421052631579,3670,188.063157894737,3984,4257,16.2736842105263,-225.273684210526,4059,3828,-306.294736842105,88,0,1563,1767,580,4,4,4,4,4,4,4,4,4,4,4,4,4,4,4,4
"423",4120,172.789473684211,4185,119.452631578947,282.936842105263,3672,188.063157894737,3986,4257,16.2736842105263,-224.242105263158,4059,3828,-306.294736842105,89,0,1563,1759,667,4,4,4,4,4,4,4,4,4,4,4,4,4,4,4,4
"424",4116,170.221052631579,4184,114.842105263158,284.989473684211,3675,188.578947368421,3981,4253,15.2421052631579,-223.726315789474,4060,3832,-305.778947368421,90,0,1555,1767,596,4,4,4,4,4,4,4,4,4,4,4,4,4,4,4,4
"425",4109,168.168421052632,4183,112.273684210526,276.778947368421,3671,187.042105263158,3976,4251,13.7052631578947,-225.778947368421,4059,3831,-308.863157894737,91,0,1563,1767,579,4,4,4,4,4,4,4,4,4,4,4,4,4,4,4,4
"426",4107,168.684210526316,4182,120.484210526316,271.136842105263,3670,186.526315789474,3983,4251,12.6842105263158,-226.294736842105,4059,3830,-309.368421052632,92,0,1559,1763,580,4,4,4,4,4,4,4,4,4,4,4,4,4,4,4,4
"427",4110,171.757894736842,4184,124.578947368421,276.273684210526,3677,188.063157894737,3992,4252,20.8842105263158,-225.273684210526,4066,3831,-304.757894736842,93,0,1559,1767,667,4,4,4,4,4,4,4,4,4,4,4,4,4,4,4,4
"428",4113,179.968421052632,4183,123.042105263158,276.778947368421,3684,187.042105263158,3992,4251,29.6,-224.757894736842,4073,3832,-300.136842105263,94,0,1559,1767,596,4,4,4,4,4,4,4,4,4,4,4,4,4,4,4,4
"429",4110,180.989473684211,4177,124.073684210526,272.684210526316,3680,181.905263157895,3989,4250,21.9052631578947,-226.810526315789,4070,3830,-301.684210526316,95,0,1559,1767,579,4,4,4,4,4,4,4,4,4,4,4,4,4,4,4,4
"430",4105,173.305263157895,4173,121.505263157895,273.18947368421,3672,181.4,3990,4249,12.1684210526316,-228.863157894737,4061,3829,-306.294736842105,96,0,1559,1771,580,4,4,4,4,4,4,4,4,4,4,4,4,4,4,4,4
"431",4105,172.789473684211,4170,118.936842105263,271.652631578947,3669,181.905263157895,3989,4249,14.7263157894737,-227.831578947368,4057,3831,-305.778947368421,97,0,1559,1771,667,4,4,4,4,4,4,4,4,4,4,4,4,4,4,4,4
"432",4105,174.842105263158,4170,122.021052631579,266.526315789474,3669,177.294736842105,3987,4249,15.7578947368421,-227.315789473684,4059,3832,-304.242105263158,98,0,1559,1775,596,4,4,4,4,4,4,4,4,4,4,4,4,4,4,4,4
"433",4105,173.305263157895,4171,119.968421052632,267.042105263158,3669,175.242105263158,3984,4248,11.1368421052632,-228.863157894737,4059,3829,-308.347368421053,99,0,1559,1771,579,4,4,4,4,4,4,4,4,4,4,4,4,4,4,4,4
"434",4107,177.4,4172,116.894736842105,272.168421052632,3670,179.347368421053,3986,4248,13.1894736842105,-227.831578947368,4058,3830,-307.315789473684,100,0,1559,1775,580,4,4,4,4,4,4,4,4,4,4,4,4,4,4,4,4
"435",4109,188.684210526316,4176,123.557894736842,275.242105263158,3676,185.494736842105,3992,4250,20.8842105263158,-223.221052631579,4065,3836,-298.094736842105,101,0,1559,1771,667,4,4,4,4,4,4,4,4,4,4,4,4,4,4,4,4
"436",4108,186.631578947368,4177,126.126315789474,273.18947368421,3677,183.957894736842,3988,4252,19.3473684210526,-223.726315789474,4065,3837,-298.094736842105,102,0,1555,1775,596,4,4,4,4,4,4,4,4,4,4,4,4,4,4,4,4
"437",4105,174.842105263158,4171,110.736842105263,270.115789473684,3668,175.242105263158,3976,4249,7.04210526315789,-227.315789473684,4053,3833,-309.884210526316,103,0,1563,1771,579,4,4,4,4,4,4,4,4,4,4,4,4,4,4,4,4
"438",4105,176.378947368421,4171,107.147368421053,271.136842105263,3665,174.221052631579,3978,4247,6.01052631578947,-226.294736842105,4051,3834,-312.452631578947,104,0,1559,1767,580,4,4,4,4,4,4,4,4,4,4,4,4,4,4,4,4
"439",4107,188.168421052632,4178,123.042105263158,272.684210526316,3673,179.863157894737,3991,4249,18.3157894736842,-224.757894736842,4063,3839,-301.168421052632,105,0,1559,1771,667,4,4,4,4,4,4,4,4,4,4,4,4,4,4,4,4
"440",4108,190.221052631579,4177,128.168421052632,272.168421052632,3679,180.884210526316,3993,4249,19.8631578947368,-221.684210526316,4068,3839,-295.526315789474,106,0,1563,1771,596,4,4,4,4,4,4,4,4,4,4,4,4,4,4,4,4
"441",4108,186.631578947368,4173,121.505263157895,272.168421052632,3672,179.347368421053,3989,4248,14.2210526315789,-217.063157894737,4063,3837,-300.136842105263,107,0,1563,1771,579,4,4,4,4,4,4,4,4,4,4,4,4,4,4,4,4
"442",4108,187.147368421053,4173,121.505263157895,273.705263157895,3666,180.368421052632,3992,4247,15.2421052631579,-221.684210526316,4058,3835,-306.810526315789,108,0,1559,1767,580,4,4,4,4,4,4,4,4,4,4,4,4,4,4,4,4
"443",4109,185.610526315789,4174,125.094736842105,271.136842105263,3674,178.831578947368,3999,4246,18.3157894736842,-227.315789473684,4063,3833,-302.18947368421,109,0,1559,1775,667,4,4,4,4,4,4,4,4,4,4,4,4,4,4,4,4
"444",4111,186.126315789474,4175,127.147368421053,272.168421052632,3682,178.831578947368,4003,4246,21.9052631578947,-217.063157894737,4071,3833,-292.452631578947,110,0,1567,1771,596,4,4,4,4,4,4,4,4,4,4,4,4,4,4,4,4
"445",4109,186.631578947368,4173,124.578947368421,273.705263157895,3675,178.315789473684,3995,4244,18.3157894736842,-212.957894736842,4064,3833,-298.6,111,0,1559,1771,579,4,4,4,4,4,4,4,4,4,4,4,4,4,4,4,4
"446",4105,177.4,4170,114.842105263158,267.547368421053,3664,174.726315789474,3987,4239,7.54736842105263,-226.294736842105,4051,3831,-312.452631578947,112,0,1563,1775,580,4,4,4,4,4,4,4,4,4,4,4,4,4,4,4,4
"447",4106,171.252631578947,4172,114.326315789474,265.494736842105,3664,177.810526315789,3989,4242,9.08421052631579,-225.273684210526,4054,3833,-311.421052631579,113,0,1563,1771,667,4,4,4,4,4,4,4,4,4,4,4,4,4,4,4,4
"448",4109,173.305263157895,4175,122.536842105263,270.115789473684,3668,182.936842105263,3993,4246,16.7789473684211,-213.473684210526,4062,3834,-306.294736842105,114,0,1559,1775,596,4,4,4,4,4,4,4,4,4,4,4,4,4,4,4,4
"449",4108,179.452631578947,4173,123.042105263158,271.652631578947,3666,183.452631578947,3998,4244,14.7263157894737,-213.473684210526,4059,3833,-306.810526315789,115,0,1559,1775,579,4,4,4,4,4,4,4,4,4,4,4,4,4,4,4,4
"450",4106,185.610526315789,4173,125.094736842105,270.631578947368,3671,185.494736842105,4005,4242,19.3473684210526,-217.063157894737,4067,3833,-298.6,116,0,1559,1775,580,4,4,4,4,4,4,4,4,4,4,4,4,4,4,4,4
"451",4109,187.147368421053,4173,130.736842105263,271.652631578947,3679,189.084210526316,4008,4244,29.0842105263158,-215.526315789474,4077,3834,-290.915789473684,117,0,1559,1771,667,4,4,4,4,4,4,4,4,4,4,4,4,4,4,4,4
"452",4111,186.631578947368,4173,129.715789473684,272.168421052632,3679,188.063157894737,4004,4245,26.0105263157895,-214.505263157895,4074,3835,-292.452631578947,118,0,1555,1779,596,4,4,4,4,4,4,4,4,4,4,4,4,4,4,4,4
"453",4109,187.663157894737,4178,126.126315789474,272.684210526316,3674,187.042105263158,4001,4242,20.3684210526316,-213.473684210526,4067,3836,-295.010526315789,119,0,1559,1775,579,4,4,4,4,4,4,4,4,4,4,4,4,4,4,4,4
"454",4107,179.452631578947,4178,122.536842105263,272.684210526316,3669,186.526315789474,3994,4237,17.8105263157895,-213.473684210526,4062,3833,-301.684210526316,120,0,1555,1779,580,4,4,4,4,4,4,4,4,4,4,4,4,4,4,4,4
"455",4104,168.168421052632,4171,119.452631578947,270.631578947368,3666,185.494736842105,3989,4233,13.1894736842105,-216.547368421053,4057,3831,-308.863157894737,121,0,1559,1779,667,4,4,4,4,4,4,4,4,4,4,4,4,4,4,4,4
"456",4106,170.736842105263,4169,121.505263157895,270.115789473684,3667,184.989473684211,3991,4235,14.2210526315789,-215.010526315789,4061,3832,-306.294736842105,122,0,1555,1779,596,4,4,4,4,4,4,4,4,4,4,4,4,4,4,4,4
"457",4106,169.715789473684,4173,116.894736842105,270.631578947368,3665,184.989473684211,3992,4235,14.2210526315789,-213.473684210526,4059,3832,-308.347368421053,123,0,1559,1783,579,4,4,4,4,4,4,4,4,4,4,4,4,4,4,4,4
"458",4099,157.4,4173,106.126315789474,270.115789473684,3655,183.452631578947,3982,4234,2.42105263157895,-216.042105263158,4045,3831,-322.705263157895,124,0,1555,1779,580,4,4,4,4,4,4,4,4,4,4,4,4,4,4,4,4
"459",4098,152.273684210526,4171,104.073684210526,270.115789473684,3651,183.452631578947,3973,4235,-4.7578947368421,-216.042105263158,4040,3828,-327.831578947368,125,0,1559,1783,667,4,4,4,4,4,4,4,4,4,4,4,4,4,4,4,4
"460",4104,155.863157894737,4171,108.684210526316,270.115789473684,3658,185.494736842105,3980,4236,0.884210526315789,-212.957894736842,4047,3825,-320.136842105263,126,0,1555,1783,596,4,4,4,4,4,4,4,4,4,4,4,4,4,4,4,4
"461",4105,156.378947368421,4171,108.684210526316,270.115789473684,3664,187.042105263158,3989,4236,6.52631578947368,-214.505263157895,4050,3823,-317.578947368421,127,0,1555,1783,579,4,4,4,4,4,4,4,4,4,4,4,4,4,4,4,4
"462",4103,154.326315789474,4173,109.2,270.115789473684,3666,187.042105263158,3986,4235,7.54736842105263,-215.010526315789,4047,3819,-320.136842105263,128,0,1559,1779,580,4,4,4,4,4,4,4,4,4,4,4,4,4,4,4,4
"463",4104,154.842105263158,4171,109.715789473684,270.115789473684,3666,186.526315789474,3983,4235,6.01052631578947,-214.505263157895,4046,3817,-318.6,0,0,1555,1783,441,4,4,4,4,4,4,4,4,4,4,4,4,4,4,4,4
"464",4099,154.842105263158,4168,107.147368421053,264.989473684211,3666,183.452631578947,3983,4235,3.95789473684211,-220.136842105263,4045,3815,-318.6,1,0,1559,1779,538,4,4,4,4,4,4,4,4,4,4,4,4,4,4,4,4
"465",4092,153.810526315789,4168,107.663157894737,258.831578947368,3664,181.4,3982,4234,3.95789473684211,-226.810526315789,4045,3813,-320.136842105263,2,0,1555,1783,523,4,4,4,4,4,4,4,4,4,4,4,4,4,4,4,4
"466",4095,155.347368421053,4169,111.252631578947,258.315789473684,3663,184.473684210526,3987,4233,7.54736842105263,-226.294736842105,4049,3811,-315.526315789474,3,0,1559,1783,548,4,4,4,4,4,4,4,4,4,4,4,4,4,4,4,4
"467",4104,158.431578947368,4169,113.305263157895,263.452631578947,3666,187.042105263158,3990,4234,11.1368421052632,-220.652631578947,4053,3813,-308.863157894737,4,0,1559,1783,509,4,4,4,4,4,4,4,4,4,4,4,4,4,4,4,4
"468",4105,156.894736842105,4169,109.2,266.010526315789,3666,184.989473684211,3985,4235,10.6315789473684,-216.042105263158,4051,3814,-310.915789473684,5,0,1559,1783,451,4,4,4,4,4,4,4,4,4,4,4,4,4,4,4,4
"469",4103,154.326315789474,4170,110.221052631579,263.957894736842,3663,186.526315789474,3982,4234,10.6315789473684,-215.010526315789,4051,3814,-311.936842105263,6,0,1559,1783,446,4,4,4,4,4,4,4,4,4,4,4,4,4,4,4,4
"470",4106,161.505263157895,4170,120.989473684211,265.494736842105,3669,194.221052631579,3990,4236,16.7789473684211,-215.010526315789,4059,3814,-305.778947368421,7,0,1559,1787,758,4,4,4,4,4,4,4,4,4,4,4,4,4,4,4,4
"471",4107,169.2,4171,125.610526315789,272.168421052632,3674,197.810526315789,3991,4245,18.3157894736842,-212.452631578947,4063,3814,-303.726315789474,8,0,1559,1787,790,4,4,4,4,4,4,4,4,4,4,4,4,4,4,4,4
"472",4105,169.2,4172,123.557894736842,273.18947368421,3671,194.726315789474,3990,4244,20.3684210526316,-211.936842105263,4061,3814,-302.18947368421,9,0,1559,1779,750,4,4,4,4,4,4,4,4,4,4,4,4,4,4,4,4
"473",4107,168.684210526316,4170,125.610526315789,265.494736842105,3671,195.242105263158,3998,4235,28.0631578947368,-216.042105263158,4063,3811,-294.505263157895,10,0,1555,1787,596,4,4,4,4,4,4,4,4,4,4,4,4,4,4,4,4
"474",4106,170.221052631579,4169,127.147368421053,259.863157894737,3673,197.294736842105,4001,4234,26.5263157894737,-216.042105263158,4065,3808,-295.010526315789,11,0,1563,1779,579,4,4,4,4,4,4,4,4,4,4,4,4,4,4,4,4
"475",4101,169.2,4169,122.021052631579,259.347368421053,3667,192.168421052632,3987,4236,16.2736842105263,-215.526315789474,4057,3807,-306.810526315789,12,0,1555,1783,580,4,4,4,4,4,4,4,4,4,4,4,4,4,4,4,4
"476",4102,167.663157894737,4167,118.936842105263,258.315789473684,3662,188.063157894737,3982,4233,12.1684210526316,-221.168421052632,4050,3804,-311.421052631579,13,0,1563,1783,667,4,4,4,4,4,4,4,4,4,4,4,4,4,4,4,4
"477",4105,170.221052631579,4166,122.536842105263,257.294736842105,3668,195.242105263158,3991,4232,17.2947368421053,-223.726315789474,4055,3802,-306.810526315789,14,0,1559,1779,596,4,4,4,4,4,4,4,4,4,4,4,4,4,4,4,4
"478",4104,170.736842105263,4169,122.536842105263,257.810526315789,3670,197.810526315789,3985,4233,16.7789473684211,-223.726315789474,4058,3802,-307.315789473684,15,0,1555,1783,579,4,4,4,4,4,4,4,4,4,4,4,4,4,4,4,4
"479",4101,167.147368421053,4168,115.863157894737,255.242105263158,3663,189.084210526316,3973,4232,11.1368421052632,-227.315789473684,4047,3799,-313.473684210526,16,0,1559,1779,0,4,4,4,4,4,4,4,4,4,4,4,4,4,4,4,4
"480",4103,167.147368421053,4166,116.894736842105,255.242105263158,3665,187.042105263158,3983,4232,15.7578947368421,-225.778947368421,4049,3799,-309.884210526316,17,0,1559,1783,0,4,4,4,4,4,4,4,4,4,4,4,4,4,4,4,4
"481",4107,175.347368421053,4170,132.789473684211,261.905263157895,3679,197.810526315789,4003,4235,29.0842105263158,-215.526315789474,4072,3804,-293.989473684211,18,0,1559,1779,0,4,4,4,4,4,4,4,4,4,4,4,4,4,4,4,4
"482",4108,180.989473684211,4172,140.484210526316,264.473684210526,3684,203.452631578947,4005,4235,35.2421052631579,-212.957894736842,4077,3806,-288.347368421053,19,0,1559,1783,0,4,4,4,4,4,4,4,4,4,4,4,4,4,4,4,4
"483",4107,179.968421052632,4169,134.842105263158,258.831578947368,3678,200.884210526316,3996,4233,31.1368421052632,-215.526315789474,4065,3804,-294.505263157895,20,0,1563,1779,0,4,4,4,4,4,4,4,4,4,4,4,4,4,4,4,4
"484",4108,182.021052631579,4168,135.863157894737,256.273684210526,3679,200.368421052632,3998,4233,28.5789473684211,-214.505263157895,4068,3803,-293.989473684211,21,0,1555,1783,0,4,4,4,4,4,4,4,4,4,4,4,4,4,4,4,4
"485",4108,185.094736842105,4169,139.968421052632,257.810526315789,3685,201.905263157895,4004,4234,33.7052631578947,-215.010526315789,4075,3802,-289.368421052632,22,0,1559,1783,0,4,4,4,4,4,4,4,4,4,4,4,4,4,4,4,4
"486",4108,186.631578947368,4170,141.505263157895,258.315789473684,3689,202.421052631579,4008,4232,43.9578947368421,-216.042105263158,4078,3803,-284.757894736842,23,0,1563,1779,0,4,4,4,4,4,4,4,4,4,4,4,4,4,4,4,4
"487",4108,194.326315789474,4170,147.147368421053,257.810526315789,3692,202.421052631579,4013,4231,50.6315789473684,-213.989473684211,4085,3805,-276.042105263158,24,0,1559,1779,0,4,4,4,4,4,4,4,4,4,4,4,4,4,4,4,4
"488",4108,200.989473684211,4170,152.273684210526,257.810526315789,3695,201.905263157895,4017,4231,47.0421052631579,-215.010526315789,4091,3803,-273.473684210526,25,0,1555,1779,0,4,4,4,4,4,4,4,4,4,4,4,4,4,4,4,4
"489",4108,199.452631578947,4169,151.757894736842,257.294736842105,3696,201.4,4018,4230,47.5473684210526,-216.042105263158,4090,3802,-275.010526315789,26,0,1563,1779,0,4,4,4,4,4,4,4,4,4,4,4,4,4,4,4,4
"490",4109,200.484210526316,4168,153.305263157895,258.315789473684,3697,201.905263157895,4021,4231,56.2736842105263,-213.989473684211,4090,3804,-270.4,27,0,1559,1775,0,4,4,4,4,4,4,4,4,4,4,4,4,4,4,4,4
"491",4110,203.042105263158,4168,154.842105263158,259.347368421053,3695,203.452631578947,4021,4231,54.7263157894737,-214.505263157895,4091,3805,-269.368421052632,28,0,1555,1779,0,4,4,4,4,4,4,4,4,4,4,4,4,4,4,4,4
"492",4111,199.452631578947,4169,152.789473684211,257.810526315789,3691,203.452631578947,4011,4230,47.5473684210526,-217.063157894737,4089,3806,-277.063157894737,29,0,1563,1771,0,4,4,4,4,4,4,4,4,4,4,4,4,4,4,4,4
"493",4111,198.431578947368,4169,152.789473684211,256.778947368421,3692,203.957894736842,4012,4230,52.1684210526316,-214.505263157895,4089,3807,-275.526315789474,30,0,1559,1775,0,4,4,4,4,4,4,4,4,4,4,4,4,4,4,4,4
"494",4109,202.021052631579,4169,155.347368421053,257.294736842105,3698,205.494736842105,4023,4230,59.8631578947368,-212.957894736842,4091,3805,-266.810526315789,31,0,1559,1771,0,4,4,4,4,4,4,4,4,4,4,4,4,4,4,4,4
"495",4112,206.631578947368,4169,162.021052631579,257.810526315789,3707,209.084210526316,4030,4230,65.4947368421053,-215.010526315789,4102,3808,-258.094736842105,32,0,1559,1771,0,4,4,4,4,4,4,4,4,4,4,4,4,4,4,4,4
"496",4119,219.452631578947,4170,175.347368421053,257.810526315789,3718,213.705263157895,4041,4231,77.8105263157895,-214.505263157895,4119,3814,-245.273684210526,33,0,1563,1771,0,4,4,4,4,4,4,4,4,4,4,4,4,4,4,4,4
"497",4121,228.168421052632,4169,179.968421052632,258.315789473684,3725,213.189473684211,4048,4230,84.9894736842105,-212.957894736842,4125,3809,-238.6,34,0,1559,1775,0,4,4,4,4,4,4,4,4,4,4,4,4,4,4,4,4
"498",4118,220.989473684211,4169,173.305263157895,257.294736842105,3722,212.168421052632,4044,4227,77.8105263157895,-215.010526315789,4118,3804,-245.273684210526,35,0,1563,1771,0,4,4,4,4,4,4,4,4,4,4,4,4,4,4,4,4
"499",4119,219.968421052632,4169,176.894736842105,257.294736842105,3724,217.294736842105,4043,4227,79.8631578947368,-214.505263157895,4120,3812,-242.189473684211,36,0,1559,1771,0,4,4,4,4,4,4,4,4,4,4,4,4,4,4,4,4
"500",4122,230.221052631579,4170,187.147368421053,259.347368421053,3732,220.884210526316,4048,4227,90.1157894736842,-211.936842105263,4126,3815,-228.863157894737,37,0,1559,1771,0,4,4,4,4,4,4,4,4,4,4,4,4,4,4,4,4
"501",4119,233.305263157895,4168,185.610526315789,260.368421052632,3730,217.810526315789,4043,4226,89.6,-211.936842105263,4122,3805,-228.863157894737,38,0,1559,1763,0,4,4,4,4,4,4,4,4,4,4,4,4,4,4,4,4
"502",4119,232.789473684211,4170,183.042105263158,260.368421052632,3727,217.810526315789,4048,4228,88.5789473684211,-212.452631578947,4126,3808,-230.4,39,0,1559,1767,0,4,4,4,4,4,4,4,4,4,4,4,4,4,4,4,4
"503",4122,237.915789473684,4172,189.715789473684,260.884210526316,3730,221.4,4062,4228,94.2210526315789,-211.936842105263,4137,3816,-223.726315789474,40,0,1559,1771,0,4,4,4,4,4,4,4,4,4,4,4,4,4,4,4,4
"504",4120,234.842105263158,4169,187.147368421053,257.294736842105,3729,218.831578947368,4054,4218,90.6315789473684,-213.473684210526,4127,3807,-229.368421052632,41,0,1559,1771,0,4,4,4,4,4,4,4,4,4,4,4,4,4,4,4,4
"505",4118,232.789473684211,4166,183.557894736842,253.189473684211,3727,217.810526315789,4048,4213,88.0631578947368,-214.505263157895,4122,3801,-232.957894736842,42,0,1563,1771,0,4,4,4,4,4,4,4,4,4,4,4,4,4,4,4,4
"506",4125,249.715789473684,4170,201.505263157895,261.905263157895,3741,227.042105263158,4069,4223,106.526315789474,-210.4,4148,3813,-209.368421052632,43,0,1559,1771,0,4,4,4,4,4,4,4,4,4,4,4,4,4,4,4,4
"507",4130,263.557894736842,4176,214.842105263158,271.652631578947,3755,236.273684210526,4084,4233,123.957894736842,-206.294736842105,4164,3820,-191.421052631579,44,0,1559,1767,0,4,4,4,4,4,4,4,4,4,4,4,4,4,4,4,4
"508",4128,259.452631578947,4176,205.610526315789,269.6,3749,235.242105263158,4075,4231,119.347368421053,-207.315789473684,4154,3816,-197.578947368421,45,0,1559,1771,0,4,4,4,4,4,4,4,4,4,4,4,4,4,4,4,4
"509",4131,258.431578947368,4174,202.021052631579,266.526315789474,3746,233.705263157895,4073,4229,110.631578947368,-208.347368421053,4152,3816,-201.168421052632,46,0,1559,1771,0,4,4,4,4,4,4,4,4,4,4,4,4,4,4,4,4
"510",4135,267.147368421053,4174,210.221052631579,267.547368421053,3753,238.831578947368,4077,4230,111.652631578947,-208.347368421053,4160,3816,-195.526315789474,47,0,1559,1771,0,4,4,4,4,4,4,4,4,4,4,4,4,4,4,4,4
"511",4133,271.757894736842,4173,208.168421052632,266.010526315789,3751,241.4,4075,4229,116.778947368421,-208.863157894737,4157,3814,-196.042105263158,48,0,1559,1767,0,4,4,4,4,4,4,4,4,4,4,4,4,4,4,4,4
"512",4135,273.810526315789,4173,208.684210526316,265.494736842105,3748,240.368421052632,4073,4228,121.905263157895,-208.863157894737,4155,3815,-197.578947368421,49,0,1559,1771,0,4,4,4,4,4,4,4,4,4,4,4,4,4,4,4,4
"513",4135,274.326315789474,4174,214.326315789474,267.042105263158,3752,242.421052631579,4075,4229,119.863157894737,-208.347368421053,4159,3816,-196.547368421053,50,0,1563,1767,0,4,4,4,4,4,4,4,4,4,4,4,4,4,4,4,4
"514",4126,266.126315789474,4172,207.663157894737,264.473684210526,3746,241.905263157895,4074,4225,109.6,-211.421052631579,4153,3814,-201.684210526316,51,0,1555,1767,0,4,4,4,4,4,4,4,4,4,4,4,4,4,4,4,4
"515",4121,262.536842105263,4168,201.505263157895,260.368421052632,3740,239.863157894737,4072,4219,107.042105263158,-212.452631578947,4142,3813,-205.778947368421,52,0,1559,1767,0,4,4,4,4,4,4,4,4,4,4,4,4,4,4,4,4
"516",4125,271.252631578947,4170,204.073684210526,258.315789473684,3745,240.368421052632,4075,4218,111.136842105263,-208.863157894737,4148,3814,-199.631578947368,53,0,1559,1767,0,4,4,4,4,4,4,4,4,4,4,4,4,4,4,4,4
"517",4124,273.305263157895,4170,205.094736842105,257.294736842105,3743,240.884210526316,4074,4217,111.652631578947,-210.915789473684,4153,3813,-199.115789473684,54,0,1559,1767,0,4,4,4,4,4,4,4,4,4,4,4,4,4,4,4,4
"518",4122,264.578947368421,4167,200.484210526316,256.273684210526,3737,240.368421052632,4066,4216,106.526315789474,-213.989473684211,4139,3808,-210.915789473684,55,0,1559,1763,0,4,4,4,4,4,4,4,4,4,4,4,4,4,4,4,4
"519",4122,265.610526315789,4166,200.989473684211,255.757894736842,3741,240.368421052632,4067,4216,104.473684210526,-212.957894736842,4137,3807,-209.884210526316,56,0,1559,1767,0,4,4,4,4,4,4,4,4,4,4,4,4,4,4,4,4
"520",4123,276.378947368421,4167,209.715789473684,255.757894736842,3749,239.863157894737,4076,4217,114.221052631579,-212.957894736842,4154,3809,-196.547368421053,57,0,1563,1763,0,4,4,4,4,4,4,4,4,4,4,4,4,4,4,4,4
"521",4123,279.452631578947,4167,216.378947368421,255.242105263158,3754,242.421052631579,4081,4217,123.957894736842,-214.505263157895,4157,3810,-195.526315789474,58,0,1559,1767,0,4,4,4,4,4,4,4,4,4,4,4,4,4,4,4,4
"522",4124,278.936842105263,4168,218.431578947368,256.778947368421,3758,245.494736842105,4081,4217,124.989473684211,-211.936842105263,4155,3813,-190.915789473684,59,0,1563,1763,0,4,4,4,4,4,4,4,4,4,4,4,4,4,4,4,4
"523",4125,282.536842105263,4169,220.484210526316,260.368421052632,3758,244.989473684211,4079,4217,122.421052631579,-209.368421052632,4164,3814,-180.652631578947,60,0,1559,1767,0,4,4,4,4,4,4,4,4,4,4,4,4,4,4,4,4
"524",4124,277.915789473684,4167,220.484210526316,256.778947368421,3753,241.905263157895,4080,4216,118.315789473684,-211.936842105263,4161,3806,-187.315789473684,61,0,1563,1763,0,4,4,4,4,4,4,4,4,4,4,4,4,4,4,4,4
"525",4122,273.810526315789,4165,217.4,251.652631578947,3753,240.368421052632,4085,4214,116.273684210526,-214.505263157895,4155,3800,-193.989473684211,62,0,1559,1767,0,4,4,4,4,4,4,4,4,4,4,4,4,4,4,4,4
"526",4122,282.536842105263,4167,223.042105263158,255.757894736842,3760,245.494736842105,4092,4214,122.936842105263,-213.989473684211,4166,3806,-180.136842105263,63,0,1563,1767,0,4,4,4,4,4,4,4,4,4,4,4,4,4,4,4,4
"527",4126,290.736842105263,4168,232.789473684211,261.4,3763,256.273684210526,4097,4217,131.652631578947,-209.884210526316,4176,3814,-171.421052631579,64,0,1559,1763,441,4,4,4,4,4,4,4,4,4,4,4,4,4,4,4,4
"528",4131,289.2,4169,234.842105263158,259.347368421053,3763,258.831578947368,4103,4218,132.684210526316,-207.831578947368,4173,3814,-179.631578947368,65,0,1563,1767,538,4,4,4,4,4,4,4,4,4,4,4,4,4,4,4,4
"529",4135,288.684210526316,4169,233.305263157895,259.347368421053,3766,256.778947368421,4106,4217,134.726315789474,-209.884210526316,4173,3815,-178.6,66,0,1559,1767,523,4,4,4,4,4,4,4,4,4,4,4,4,4,4,4,4
"530",4132,292.273684210526,4169,234.326315789474,260.368421052632,3770,257.810526315789,4106,4218,139.347368421053,-210.915789473684,4177,3815,-167.831578947368,67,0,1559,1771,548,4,4,4,4,4,4,4,4,4,4,4,4,4,4,4,4
"531",4128,293.305263157895,4168,234.842105263158,257.810526315789,3769,258.315789473684,4109,4217,141.4,-210.4,4183,3814,-164.242105263158,68,0,1563,1767,509,4,4,4,4,4,4,4,4,4,4,4,4,4,4,4,4
"532",4131,294.326315789474,4169,234.842105263158,260.884210526316,3764,258.831578947368,4109,4216,139.347368421053,-209.368421052632,4185,3813,-166.810526315789,69,0,1559,1767,451,4,4,4,4,4,4,4,4,4,4,4,4,4,4,4,4
"533",4135,293.305263157895,4170,232.789473684211,264.989473684211,3761,261.4,4106,4216,138.315789473684,-207.831578947368,4176,3815,-166.810526315789,70,0,1559,1767,446,4,4,4,4,4,4,4,4,4,4,4,4,4,4,4,4
"534",4131,290.736842105263,4168,234.842105263158,260.884210526316,3767,260.368421052632,4106,4213,140.368421052632,-208.347368421053,4176,3815,-163.221052631579,71,0,1559,1767,757,4,4,4,4,4,4,4,4,4,4,4,4,4,4,4,4
"535",4124,288.168421052632,4167,233.810526315789,255.757894736842,3767,257.810526315789,4099,4205,135.242105263158,-212.452631578947,4175,3811,-169.368421052632,72,0,1563,1763,787,4,4,4,4,4,4,4,4,4,4,4,4,4,4,4,4
"536",4123,280.484210526316,4167,224.073684210526,254.221052631579,3752,256.778947368421,4084,4202,120.884210526316,-214.505263157895,4158,3805,-186.294736842105,73,0,1555,1767,750,4,4,4,4,4,4,4,4,4,4,4,4,4,4,4,4
"537",4122,272.273684210526,4162,215.863157894737,251.652631578947,3743,256.778947368421,4078,4202,114.726315789474,-213.473684210526,4149,3803,-198.094736842105,74,0,1559,1771,596,4,4,4,4,4,4,4,4,4,4,4,4,4,4,4,4
"538",4122,270.736842105263,4157,216.378947368421,248.063157894737,3746,256.273684210526,4078,4202,118.831578947368,-214.505263157895,4152,3803,-197.578947368421,75,0,1559,1767,579,4,4,4,4,4,4,4,4,4,4,4,4,4,4,4,4
"539",4124,275.863157894737,4158,220.989473684211,247.547368421053,3752,255.757894736842,4079,4201,122.421052631579,-215.526315789474,4156,3800,-193.989473684211,76,0,1555,1775,580,4,4,4,4,4,4,4,4,4,4,4,4,4,4,4,4
"540",4124,279.968421052632,4159,226.126315789474,250.115789473684,3755,257.810526315789,4086,4201,123.452631578947,-214.505263157895,4165,3800,-188.863157894737,77,0,1559,1767,667,4,4,4,4,4,4,4,4,4,4,4,4,4,4,4,4
"541",4124,278.936842105263,4161,227.147368421053,255.242105263158,3755,259.863157894737,4093,4202,126.010526315789,-212.957894736842,4169,3803,-182.705263157895,78,0,1559,1771,596,4,4,4,4,4,4,4,4,4,4,4,4,4,4,4,4
"542",4124,276.894736842105,4165,225.610526315789,257.294736842105,3753,260.884210526316,4091,4204,125.494736842105,-213.473684210526,4164,3804,-182.189473684211,79,0,1559,1771,579,4,4,4,4,4,4,4,4,4,4,4,4,4,4,4,4
"543",4124,279.968421052632,4166,230.221052631579,256.273684210526,3753,262.936842105263,4093,4203,130.115789473684,-213.989473684211,4166,3804,-182.705263157895,80,0,1559,1775,580,4,4,4,4,4,4,4,4,4,4,4,4,4,4,4,4
"544",4124,283.042105263158,4166,234.842105263158,256.273684210526,3754,265.494736842105,4100,4201,137.294736842105,-213.989473684211,4173,3804,-181.168421052632,81,0,1559,1771,667,4,4,4,4,4,4,4,4,4,4,4,4,4,4,4,4
"545",4123,277.915789473684,4166,229.715789473684,255.242105263158,3748,265.494736842105,4096,4202,132.168421052632,-214.505263157895,4167,3803,-183.221052631579,82,0,1559,1775,596,4,4,4,4,4,4,4,4,4,4,4,4,4,4,4,4
"546",4124,275.347368421053,4166,227.147368421053,255.242105263158,3741,270.115789473684,4090,4204,124.473684210526,-213.989473684211,4162,3806,-185.273684210526,83,0,1559,1771,579,4,4,4,4,4,4,4,4,4,4,4,4,4,4,4,4
"547",4126,276.378947368421,4165,230.221052631579,255.757894736842,3745,275.242105263158,4093,4205,125.494736842105,-213.473684210526,4166,3808,-182.705263157895,84,0,1559,1775,580,4,4,4,4,4,4,4,4,4,4,4,4,4,4,4,4
"548",4124,273.305263157895,4160,229.715789473684,251.136842105263,3748,273.18947368421,4094,4203,127.042105263158,-215.526315789474,4167,3804,-181.168421052632,85,0,1559,1775,667,4,4,4,4,4,4,4,4,4,4,4,4,4,4,4,4
"549",4123,274.842105263158,4157,230.736842105263,247.042105263158,3745,271.136842105263,4091,4203,131.136842105263,-216.547368421053,4166,3801,-182.189473684211,86,0,1563,1775,596,4,4,4,4,4,4,4,4,4,4,4,4,4,4,4,4
"550",4125,278.936842105263,4161,233.305263157895,250.115789473684,3746,273.705263157895,4092,4206,134.221052631579,-215.010526315789,4168,3803,-180.652631578947,87,0,1559,1771,579,4,4,4,4,4,4,4,4,4,4,4,4,4,4,4,4
"551",4125,274.842105263158,4163,230.221052631579,251.652631578947,3747,274.221052631579,4091,4205,127.042105263158,-214.505263157895,4166,3802,-182.705263157895,88,0,1555,1775,580,4,4,4,4,4,4,4,4,4,4,4,4,4,4,4,4
"552",4123,271.757894736842,4161,229.2,247.547368421053,3747,272.684210526316,4089,4201,126.010526315789,-215.010526315789,4166,3800,-184.242105263158,89,0,1563,1775,667,4,4,4,4,4,4,4,4,4,4,4,4,4,4,4,4
"553",4126,281.505263157895,4167,240.484210526316,249.6,3754,274.726315789474,4103,4210,144.473684210526,-214.505263157895,4179,3807,-172.957894736842,90,0,1555,1771,596,4,4,4,4,4,4,4,4,4,4,4,4,4,4,4,4
"554",4130,290.221052631579,4168,248.168421052632,253.705263157895,3763,276.778947368421,4114,4216,155.242105263158,-213.989473684211,4193,3809,-160.136842105263,91,0,1559,1775,579,4,4,4,4,4,4,4,4,4,4,4,4,4,4,4,4
"555",4124,288.684210526316,4161,244.073684210526,249.6,3759,273.18947368421,4109,4210,150.115789473684,-214.505263157895,4188,3803,-165.273684210526,92,0,1559,1775,580,4,4,4,4,4,4,4,4,4,4,4,4,4,4,4,4
"556",4124,287.147368421053,4162,247.147368421053,248.063157894737,3759,278.315789473684,4110,4209,151.652631578947,-214.505263157895,4186,3805,-168.347368421053,93,0,1559,1775,667,4,4,4,4,4,4,4,4,4,4,4,4,4,4,4,4
"557",4135,290.736842105263,4170,258.936842105263,255.757894736842,3770,287.547368421053,4123,4216,162.936842105263,-212.452631578947,4199,3814,-154.505263157895,94,0,1555,1775,596,4,4,4,4,4,4,4,4,4,4,4,4,4,4,4,4
"558",4135,295.347368421053,4168,263.042105263158,257.294736842105,3775,284.989473684211,4128,4217,170.631578947368,-211.421052631579,4206,3815,-142.705263157895,95,0,1563,1775,579,4,4,4,4,4,4,4,4,4,4,4,4,4,4,4,4
"559",4124,291.757894736842,4158,257.915789473684,247.547368421053,3771,277.810526315789,4122,4210,165.494736842105,-213.473684210526,4201,3805,-151.936842105263,96,0,1559,1771,580,4,4,4,4,4,4,4,4,4,4,4,4,4,4,4,4
"560",4123,287.147368421053,4156,255.347368421053,244.473684210526,3765,282.936842105263,4116,4206,159.347368421053,-216.547368421053,4198,3801,-163.726315789474,97,0,1559,1775,667,4,4,4,4,4,4,4,4,4,4,4,4,4,4,4,4
"561",4128,287.663157894737,4159,251.757894736842,250.115789473684,3762,290.115789473684,4113,4210,157.294736842105,-216.042105263158,4197,3804,-161.684210526316,98,0,1563,1775,596,4,4,4,4,4,4,4,4,4,4,4,4,4,4,4,4
"562",4125,287.147368421053,4158,248.684210526316,251.136842105263,3763,289.084210526316,4110,4212,154.726315789474,-215.526315789474,4194,3806,-155.526315789474,99,0,1559,1775,579,4,4,4,4,4,4,4,4,4,4,4,4,4,4,4,4
"563",4124,288.168421052632,4155,254.842105263158,248.578947368421,3769,287.547368421053,4114,4206,160.368421052632,-216.547368421053,4196,3806,-151.936842105263,100,0,1563,1771,580,4,4,4,4,4,4,4,4,4,4,4,4,4,4,4,4
"564",4127,295.863157894737,4155,263.042105263158,250.115789473684,3772,289.6,4123,4202,172.168421052632,-216.547368421053,4204,3803,-148.347368421053,101,0,1559,1775,667,4,4,4,4,4,4,4,4,4,4,4,4,4,4,4,4
"565",4127,296.378947368421,4155,257.915789473684,249.6,3768,291.652631578947,4122,4203,167.547368421053,-222.705263157895,4202,3803,-149.368421052632,102,0,1563,1775,596,4,4,4,4,4,4,4,4,4,4,4,4,4,4,4,4
"566",4123,287.147368421053,4154,247.663157894737,246.010526315789,3760,290.115789473684,4111,4203,152.684210526316,-228.347368421053,4190,3802,-156.042105263158,103,0,1559,1775,579,4,4,4,4,4,4,4,4,4,4,4,4,4,4,4,4
"567",4126,288.168421052632,4155,252.789473684211,248.063157894737,3761,292.168421052632,4113,4203,159.347368421053,-222.189473684211,4192,3803,-152.452631578947,104,0,1563,1779,580,4,4,4,4,4,4,4,4,4,4,4,4,4,4,4,4
"568",4136,298.936842105263,4155,264.073684210526,251.652631578947,3770,300.884210526316,4124,4204,173.189473684211,-214.505263157895,4207,3805,-144.242105263158,105,0,1563,1771,667,4,4,4,4,4,4,4,4,4,4,4,4,4,4,4,4
"569",4138,304.578947368421,4155,267.147368421053,248.578947368421,3776,304.989473684211,4125,4209,172.168421052632,-215.526315789474,4210,3807,-144.757894736842,106,0,1559,1779,596,4,4,4,4,4,4,4,4,4,4,4,4,4,4,4,4
"570",4134,305.610526315789,4157,272.273684210526,248.578947368421,3776,304.989473684211,4125,4212,174.221052631579,-215.526315789474,4210,3811,-139.631578947368,107,0,1563,1775,579,4,4,4,4,4,4,4,4,4,4,4,4,4,4,4,4
"571",4134,307.663157894737,4157,274.842105263158,250.631578947368,3774,306.526315789474,4127,4207,178.831578947368,-212.957894736842,4211,3812,-131.936842105263,108,0,1559,1775,580,4,4,4,4,4,4,4,4,4,4,4,4,4,4,4,4
