"","AF3","AF4","F3","F4","F7","F8","FC5","FC6","O1","O2","P7","P8","T7","T8","COUNTER","INTERPOLATED","GYROX","GYROY","RAW_CQ","CQ_CMS","CQ_F7","CQ_T7","CQ_O2","CQ_FC6","CQ_AF4","CQ_F3","CQ_P7","CQ_P8","CQ_F4","CQ_AF3","CQ_FC5","CQ_O1","CQ_T8","CQ_F8","CQ_DRL"
"1",4178,-297.978947368421,4112,-331.831578947368,144.473684210526,3106,-237.684210526316,3159,4216,-226.694736842105,-103.726315789474,3190,3816,-285.157894736842,86,0,1559,1771,6613,4,4,4,4,4,4,4,4,4,4,4,4,4,4,4,4
"2",4180,-84.6526315789474,4136,-154.389473684211,145.494736842105,3447,-233.578947368421,3419,4221,130.736842105263,-101.684210526316,3567,3816,111.252631578947,87,0,1555,1771,6161,4,4,4,4,4,4,4,4,4,4,4,4,4,4,4,4
"3",4189,232.789473684211,4153,173.810526315789,147.042105263158,3697,-232.557894736842,3716,4218,-313.473684210526,-109.368421052632,3817,3816,-309.884210526316,88,0,1559,1775,6249,4,4,4,4,4,4,4,4,4,4,4,4,4,4,4,4
"4",4189,-212.957894736842,4148,-264.242105263158,143.452631578947,3845,-237.168421052632,3928,4221,-188.863157894737,-109.884210526316,3936,3815,-211.936842105263,89,0,1559,1771,5949,4,4,4,4,4,4,4,4,4,4,4,4,4,4,4,4
"5",4175,-204.863157894737,4167,-271.536842105263,138.831578947368,4594,-239.736842105263,4648,4221,-131.021052631579,-111.936842105263,4683,3808,-191.021052631579,90,0,1555,1775,6613,4,4,4,4,4,4,4,4,4,4,4,4,4,4,4,4
"6",4172,75.1368421052632,4194,16.1578947368421,143.957894736842,4918,-236.663157894737,4949,4225,211.031578947368,-110.4,5023,3811,140.778947368421,91,0,1559,1771,6161,4,4,4,4,4,4,4,4,4,4,4,4,4,4,4,4
"7",4174,-85.3789473684211,4189,-118.715789473684,147.547368421053,4642,-229.989473684211,4750,4231,-56.6631578947368,-107.831578947368,4734,3818,-176.147368421053,92,0,1559,1771,6249,4,4,4,4,4,4,4,4,4,4,4,4,4,4,4,4
"8",4168,170.631578947368,4165,143.957894736842,143.452631578947,4144,-229.989473684211,4294,4233,152.684210526316,-103.726315789474,4244,3819,13.7052631578947,93,0,1559,1771,5949,4,4,4,4,4,4,4,4,4,4,4,4,4,4,4,4
"9",4161,-128.863157894737,4149,-182.705263157895,139.863157894737,4033,-239.736842105263,4054,4229,52.6842105263158,-106.810526315789,4178,3809,21.4,94,0,1559,1771,6613,4,4,4,4,4,4,4,4,4,4,4,4,4,4,4,4
"10",4156,15.3473684210526,4125,-26.1894736842105,139.863157894737,3564,-244.357894736842,3532,4222,276.378947368421,-114.505263157895,3738,3806,314.842105263158,95,0,1559,1767,6161,4,4,4,4,4,4,4,4,4,4,4,4,4,4,4,4
"11",4153,108.789473684211,4084,103.663157894737,138.315789473684,2825,-242.305263157895,2879,4216,189.821052631579,-118.094736842105,2931,3809,161.610526315789,96,0,1555,1771,6249,4,4,4,4,4,4,4,4,4,4,4,4,4,4,4,4
"12",4155,205.2,4079,197.515789473684,139.347368421053,2908,-241.789473684211,2974,4213,265.715789473684,-120.136842105263,2992,3810,211.357894736842,97,0,1559,1771,5949,4,4,4,4,4,4,4,4,4,4,4,4,4,4,4,4
"13",4166,-114.905263157895,4111,-180.031578947368,141.4,3426,-243.842105263158,3406,4214,123.042105263158,-124.757894736842,3566,3810,122.021052631579,98,0,1555,1767,6613,4,4,4,4,4,4,4,4,4,4,4,4,4,4,4,4
"14",4173,295.347368421053,4140,227.147368421053,141.4,3759,-237.168421052632,3795,4214,-232.452631578947,-125.273684210526,3889,3810,-248.863157894737,99,0,1559,1771,6161,4,4,4,4,4,4,4,4,4,4,4,4,4,4,4,4
"15",4177,-126.294736842105,4149,-160.136842105263,144.989473684211,3888,-231.536842105263,4011,4217,-139.631578947368,-113.989473684211,3954,3813,-205.273684210526,100,0,1559,1767,6249,4,4,4,4,4,4,4,4,4,4,4,4,4,4,4,4
"16",4174,-161.273684210526,4166,-211.021052631579,145.494736842105,4616,-238.715789473684,4691,4216,-100.252631578947,-113.989473684211,4698,3813,-176.663157894737,101,0,1559,1767,5949,4,4,4,4,4,4,4,4,4,4,4,4,4,4,4,4
"17",4167,37.1894736842105,4182,-44.3578947368421,141.4,4906,-243.326315789474,4924,4215,213.6,-118.6,5032,3811,144.368421052632,102,0,1559,1767,6613,4,4,4,4,4,4,4,4,4,4,4,4,4,4,4,4
"18",4159,-213.578947368421,4176,-280.768421052632,137.810526315789,4516,-242.305263157895,4624,4216,-168.452631578947,-120.136842105263,4622,3804,-291.536842105263,103,0,1559,1771,6161,4,4,4,4,4,4,4,4,4,4,4,4,4,4,4,4
"19",4155,30.6315789473684,4157,-7.83157894736842,136.778947368421,3976,-243.326315789474,4146,4218,0.884210526315789,-117.578947368421,4086,3801,-143.221052631579,104,0,1563,1767,6249,4,4,4,4,4,4,4,4,4,4,4,4,4,4,4,4
"20",4149,-248.863157894737,4132,-304.757894736842,136.778947368421,3900,-245.378947368421,3923,4217,-83.7263157894737,-115.010526315789,4043,3802,-116.042105263158,105,0,1559,1767,5949,4,4,4,4,4,4,4,4,4,4,4,4,4,4,4,4
"21",4142,-10.2842105263158,4104,-57.9789473684211,140.368421052632,3537,-243.842105263158,3498,4217,219.968421052632,-115.010526315789,3676,3804,247.147368421053,106,0,1563,1771,6613,4,4,4,4,4,4,4,4,4,4,4,4,4,4,4,4
"22",4146,148.284210526316,4075,132.894736842105,137.294736842105,2874,-242.810526315789,2922,4221,229.305263157895,-119.115789473684,2965,3805,188.284210526316,107,0,1559,1767,6161,4,4,4,4,4,4,4,4,4,4,4,4,4,4,4,4
"23",4151,198.536842105263,4075,181.610526315789,135.242105263158,2912,-243.842105263158,2971,4219,274.947368421053,-123.221052631579,3003,3804,221.105263157895,108,0,1559,1771,6249,4,4,4,4,4,4,4,4,4,4,4,4,4,4,4,4
"24",4151,-205.157894736842,4095,-259.515789473684,136.273684210526,3306,-244.863157894737,3300,4210,-8.24210526315789,-123.221052631579,3432,3800,-12.3368421052632,109,0,1563,1767,5949,4,4,4,4,4,4,4,4,4,4,4,4,4,4,4,4
"25",4151,56.8947368421053,4108,-1.56842105263158,132.684210526316,3551,-245.894736842105,3559,4202,243.042105263158,-127.831578947368,3684,3795,230.221052631579,110,0,1559,1771,6613,4,4,4,4,4,4,4,4,4,4,4,4,4,4,4,4
"26",4161,257.4,4118,199.968421052632,130.115789473684,3723,-247.947368421053,3747,4205,-291.421052631579,-134.505263157895,3830,3799,-325.778947368421,111,0,1559,1767,6161,4,4,4,4,4,4,4,4,4,4,4,4,4,4,4,4
"27",4160,319.863157894737,4150,240.884210526316,131.652631578947,4483,-248.452631578947,4508,4207,-221.273684210526,-139.631578947368,4592,3800,-274.610526315789,112,0,1563,1767,6249,4,4,4,4,4,4,4,4,4,4,4,4,4,4,4,4
"28",4158,-33.5789473684211,4175,-125.894736842105,131.136842105263,4788,-247.431578947368,4843,4201,105.389473684211,-136.042105263158,4917,3797,22.3157894736842,113,0,1563,1763,5949,4,4,4,4,4,4,4,4,4,4,4,4,4,4,4,4
"29",4161,-224.863157894737,4171,-313.073684210526,129.6,4490,-246.915789473684,4615,4198,-184.357894736842,-132.957894736842,4602,3797,-321.789473684211,114,0,1555,1767,6613,4,4,4,4,4,4,4,4,4,4,4,4,4,4,4,4
"30",4165,77.8105263157895,4161,7.54736842105263,133.705263157895,4067,-246.4,4215,4207,90.6315789473684,-131.936842105263,4182,3803,-47.3157894736842,115,0,1563,1767,6161,4,4,4,4,4,4,4,4,4,4,4,4,4,4,4,4
"31",4166,-172.452631578947,4157,-242.705263157895,131.136842105263,3990,-246.4,4006,4206,-4.7578947368421,-129.884210526316,4124,3801,-31.9368421052632,116,0,1559,1763,6249,4,4,4,4,4,4,4,4,4,4,4,4,4,4,4,4
"32",4162,10.2210526315789,4135,-42.6,128.063157894737,3556,-247.431578947368,3512,4204,221.505263157895,-131.421052631579,3676,3797,247.663157894737,117,0,1555,1767,5949,4,4,4,4,4,4,4,4,4,4,4,4,4,4,4,4
"33",4156,149.305263157895,4093,124.178947368421,130.631578947368,2889,-246.915789473684,2923,4211,226.231578947368,-136.042105263158,2965,3797,189.305263157895,118,0,1559,1767,6613,4,4,4,4,4,4,4,4,4,4,4,4,4,4,4,4
"34",4150,162.126315789474,4082,139.568421052632,129.6,2888,-248.968421052632,2930,4209,229.305263157895,-134.505263157895,2962,3798,182.126315789474,119,0,1559,1763,6161,4,4,4,4,4,4,4,4,4,4,4,4,4,4,4,4
"35",4144,-326.18947368421,4092,313.410526315789,123.957894736842,3166,-255.631578947368,3157,4199,-172.852631578947,-130.915789473684,3264,3797,-180.031578947368,120,0,1555,1767,6249,4,4,4,4,4,4,4,4,4,4,4,4,4,4,4,4
"36",4134,-110.8,4094,-171.831578947368,120.368421052632,3384,-259.221052631579,3384,4198,66.6315789473684,-132.957894736842,3506,3794,50.2210526315789,121,0,1555,1763,5949,4,4,4,4,4,4,4,4,4,4,4,4,4,4,4,4
"37",4134,93.3052631578947,4093,18.4315789473684,124.473684210526,3637,-257.684210526316,3602,4203,311.252631578947,-129.368421052632,3748,3796,283.557894736842,122,0,1551,1767,6613,4,4,4,4,4,4,4,4,4,4,4,4,4,4,4,4
"38",4138,118.831578947368,4117,33.1894736842105,127.547368421053,4339,-251.021052631579,4314,4200,321.4,-130.4,4443,3799,267.042105263158,123,0,1555,1767,6161,4,4,4,4,4,4,4,4,4,4,4,4,4,4,4,4
"39",4139,-241.273684210526,4140,-314.094736842105,130.631578947368,4549,-246.915789473684,4627,4200,-112.042105263158,-132.452631578947,4698,3802,-196.663157894737,124,0,1551,1767,6249,4,4,4,4,4,4,4,4,4,4,4,4,4,4,4,4
"40",4138,-321.273684210526,4137,308.578947368421,128.578947368421,4373,-249.989473684211,4526,4202,-256.147368421053,-129.884210526316,4546,3800,314.221052631579,125,0,1555,1763,5949,4,4,4,4,4,4,4,4,4,4,4,4,4,4,4,4
"41",4137,114.221052631579,4129,60.8842105263158,124.989473684211,4141,-253.578947368421,4265,4204,189.084210526316,-127.831578947368,4296,3799,66.5263157894737,126,0,1547,1767,6613,4,4,4,4,4,4,4,4,4,4,4,4,4,4,4,4
"42",4137,-128.863157894737,4127,-190.4,125.494736842105,4050,-249.484210526316,4059,4204,76.2736842105263,-133.473684210526,4207,3797,41.9052631578947,127,0,1555,1767,6161,4,4,4,4,4,4,4,4,4,4,4,4,4,4,4,4
"43",4138,43.0421052631579,4110,-1.56842105263158,128.063157894737,3578,-246.4,3554,4206,272.273684210526,-133.473684210526,3723,3799,291.252631578947,128,0,1551,1763,6249,4,4,4,4,4,4,4,4,4,4,4,4,4,4,4,4
"44",4137,269.305263157895,4074,252.389473684211,126.526315789474,3023,-252.557894736842,3054,4208,-320.031578947368,-129.368421052632,3108,3800,340.589473684211,0,0,1551,1771,572,4,4,4,4,4,4,4,4,4,4,4,4,4,4,4,4
"45",4139,257,4071,239.052631578947,128.063157894737,2991,-253.073684210526,3037,4207,-327.726315789474,-129.368421052632,3095,3799,312.389473684211,1,0,1555,1763,403,4,4,4,4,4,4,4,4,4,4,4,4,4,4,4,4
"46",4151,328.789473684211,4095,291.357894736842,132.684210526316,3109,-245.894736842105,3129,4209,-192.336842105263,-130.915789473684,3237,3801,-228.747368421053,2,0,1551,1767,493,4,4,4,4,4,4,4,4,4,4,4,4,4,4,4,4
"47",4158,-181.568421052632,4108,-222.084210526316,136.273684210526,3305,-241.789473684211,3313,4215,-22.0842105263158,-130.4,3412,3802,-45.6736842105263,3,0,1555,1767,463,4,4,4,4,4,4,4,4,4,4,4,4,4,4,4,4
"48",4153,88.1684210526316,4110,22.0210526315789,138.315789473684,3663,-244.863157894737,3610,4214,331.757894736842,-125.273684210526,3782,3805,-338.094736842105,4,0,1555,1771,501,4,4,4,4,4,4,4,4,4,4,4,4,4,4,4,4
"49",4146,60.8842105263158,4134,-25.7789473684211,133.189473684211,4295,-243.842105263158,4277,4206,317.294736842105,-124.242105263158,4453,3804,289.084210526316,5,0,1559,1767,514,4,4,4,4,4,4,4,4,4,4,4,4,4,4,4,4
"50",4146,-334.610526315789,4151,290.631578947368,126.010526315789,4440,-244.357894736842,4534,4208,-211.536842105263,-125.778947368421,4588,3802,-336.147368421053,6,0,1551,1771,505,4,4,4,4,4,4,4,4,4,4,4,4,4,4,4,4
"51",4143,-237.168421052632,4148,-279.221052631579,123.452631578947,4491,-246.915789473684,4614,4211,-164.357894736842,-128.863157894737,4632,3800,-291.536842105263,7,0,1559,1771,6354,4,4,4,4,4,4,4,4,4,4,4,4,4,4,4,4
"52",4145,-314.094736842105,4148,326.010526315789,126.010526315789,4478,-247.431578947368,4559,4206,-173.073684210526,-128.347368421053,4632,3800,-270.505263157895,8,0,1559,1767,6353,4,4,4,4,4,4,4,4,4,4,4,4,4,4,4,4
"53",4145,58.8315789473684,4140,-13.9894736842105,127.042105263158,4239,-246.915789473684,4259,4199,240.884210526316,-131.936842105263,4351,3800,152.168421052632,9,0,1559,1771,6461,4,4,4,4,4,4,4,4,4,4,4,4,4,4,4,4
"54",4135,126.631578947368,4109,71.7578947368421,127.042105263158,3606,-248.452631578947,3616,4198,264.073684210526,-135.526315789474,3683,3802,210.221052631579,10,0,1559,1771,6530,4,4,4,4,4,4,4,4,4,4,4,4,4,4,4,4
"55",4131,-207.210526315789,4081,-236.957894736842,124.473684210526,3246,-253.073684210526,3265,4199,-93.3684210526316,-131.936842105263,3339,3796,-107.210526315789,11,0,1559,1767,6083,4,4,4,4,4,4,4,4,4,4,4,4,4,4,4,4
"56",4137,-308.747368421053,4081,-335.926315789474,123.452631578947,3137,-259.221052631579,3175,4198,-160.031578947368,-130.4,3276,3793,-184.136842105263,12,0,1559,1767,6171,4,4,4,4,4,4,4,4,4,4,4,4,4,4,4,4
"57",4140,121.105263157895,4078,90.8421052631579,124.473684210526,2826,-259.221052631579,2907,4199,230.842105263158,-135.526315789474,2956,3796,167.768421052632,13,0,1555,1771,5831,4,4,4,4,4,4,4,4,4,4,4,4,4,4,4,4
"58",4135,234.947368421053,4073,200.073684210526,125.494736842105,2957,-250.505263157895,3015,4203,332.389473684211,-135.526315789474,3067,3797,291.357894736842,14,0,1563,1763,6530,4,4,4,4,4,4,4,4,4,4,4,4,4,4,4,4
"59",4137,-33.3684210526316,4087,-95.9263157894737,127.042105263158,3535,-242.810526315789,3484,4213,212.789473684211,-128.863157894737,3670,3795,235.347368421053,15,0,1555,1767,6083,4,4,4,4,4,4,4,4,4,4,4,4,4,4,4,4
"60",4141,-229.884210526316,4116,-288.347368421053,125.494736842105,3963,-244.357894736842,3975,4209,-15.5263157894737,-129.368421052632,4110,3795,-36.0421052631579,16,0,1559,1767,0,4,4,4,4,4,4,4,4,4,4,4,4,4,4,4,4
"61",4139,-58.6,4127,-103.221052631579,124.473684210526,3956,-250.505263157895,4102,4199,-19.1157894736842,-129.368421052632,4068,3797,-123.726315789474,17,0,1555,1767,0,4,4,4,4,4,4,4,4,4,4,4,4,4,4,4,4
"62",4133,340.368421052632,4132,281.4,126.526315789474,4417,-247.947368421053,4506,4201,-260.768421052632,-128.863157894737,4538,3797,333.705263157895,18,0,1555,1767,0,4,4,4,4,4,4,4,4,4,4,4,4,4,4,4,4
"63",4132,-153.578947368421,4143,-227.947368421053,127.547368421053,4702,-246.4,4741,4204,56.1578947368421,-130.915789473684,4880,3796,-16.1473684210526,19,0,1555,1767,0,4,4,4,4,4,4,4,4,4,4,4,4,4,4,4,4
"64",4134,282.936842105263,4135,189.084210526316,125.494736842105,4341,-253.578947368421,4499,4196,-281.273684210526,-133.989473684211,4511,3793,273.705263157895,20,0,1555,1767,0,4,4,4,4,4,4,4,4,4,4,4,4,4,4,4,4
"65",4129,-248.863157894737,4104,-331.421052631579,124.989473684211,3759,-259.221052631579,3946,4193,-191.421052631579,-133.989473684211,3895,3791,-339.631578947368,21,0,1551,1763,0,4,4,4,4,4,4,4,4,4,4,4,4,4,4,4,4
"66",4122,160.484210526316,4078,115.863157894737,122.936842105263,3635,-257.168421052632,3654,4194,338.936842105263,-136.042105263158,3770,3785,299.452631578947,22,0,1551,1771,0,4,4,4,4,4,4,4,4,4,4,4,4,4,4,4,4
"67",4117,-172.852631578947,4068,-187.210526315789,121.905263157895,3352,-253.578947368421,3318,4193,42.0210526315789,-131.421052631579,3494,3786,62.5368421052632,23,0,1555,1767,0,4,4,4,4,4,4,4,4,4,4,4,4,4,4,4,4
"68",4117,33.4105263157895,4042,21.6105263157895,124.473684210526,2783,-255.126315789474,2818,4197,131.873684210526,-125.273684210526,2878,3795,107.768421052632,24,0,1547,1771,0,4,4,4,4,4,4,4,4,4,4,4,4,4,4,4,4
"69",4122,78.5368421052632,4038,60.5894736842105,127.042105263158,2833,-255.631578947368,2856,4202,158.536842105263,-126.294736842105,2899,3796,124.178947368421,25,0,1551,1771,0,4,4,4,4,4,4,4,4,4,4,4,4,4,4,4,4
"70",4126,-307.726315789474,4069,340.073684210526,125.494736842105,3196,-255.126315789474,3178,4200,-137.463157894737,-129.884210526316,3305,3793,-135.926315789474,26,0,1551,1771,0,4,4,4,4,4,4,4,4,4,4,4,4,4,4,4,4
"71",4123,-95.4210526315789,4088,-165.673684210526,122.421052631579,3411,-257.168421052632,3409,4195,110.736842105263,-136.042105263158,3554,3790,100.484210526316,27,0,1551,1771,0,4,4,4,4,4,4,4,4,4,4,4,4,4,4,4,4
"72",4128,121.505263157895,4098,34.8421052631579,122.936842105263,3679,-259.221052631579,3641,4197,342.536842105263,-137.578947368421,3783,3792,310.736842105263,28,0,1551,1771,0,4,4,4,4,4,4,4,4,4,4,4,4,4,4,4,4
"73",4142,189.6,4135,107.547368421053,124.989473684211,4431,-250.505263157895,4398,4200,-288.452631578947,-133.989473684211,4531,3795,-344.357894736842,29,0,1551,1771,0,4,4,4,4,4,4,4,4,4,4,4,4,4,4,4,4
"74",4142,-162.810526315789,4155,-236.663157894737,126.526315789474,4651,-244.357894736842,4709,4202,-15.6315789473684,-128.347368421053,4801,3797,-101.273684210526,30,0,1551,1771,0,4,4,4,4,4,4,4,4,4,4,4,4,4,4,4,4
"75",4123,-284.863157894737,4132,326.526315789474,125.494736842105,4437,-254.094736842105,4563,4202,-217.684210526316,-133.989473684211,4587,3793,-325.378947368421,31,0,1555,1771,0,4,4,4,4,4,4,4,4,4,4,4,4,4,4,4,4
"76",4110,179.863157894737,4119,109.6,123.452631578947,4247,-260.768421052632,4344,4204,275.242105263158,-132.957894736842,4392,3794,174.221052631579,32,0,1555,1771,0,4,4,4,4,4,4,4,4,4,4,4,4,4,4,4,4
"77",4113,-106.810526315789,4115,-172.452631578947,123.452631578947,4096,-254.610526315789,4086,4204,119.347368421053,-124.242105263158,4257,3799,70.6315789473684,33,0,1559,1767,0,4,4,4,4,4,4,4,4,4,4,4,4,4,4,4,4
"78",4118,26.1263157894737,4089,-30.8,126.526315789474,3568,-250.505263157895,3530,4201,255.863157894737,-122.705263157895,3704,3798,246.126315789474,34,0,1555,1767,0,4,4,4,4,4,4,4,4,4,4,4,4,4,4,4,4
"79",4117,-292.336842105263,4061,-336.957894736842,127.547368421053,3172,-252.557894736842,3184,4201,-176.957894736842,-125.273684210526,3254,3797,-189.778947368421,35,0,1559,1767,0,4,4,4,4,4,4,4,4,4,4,4,4,4,4,4,4
"80",4110,-328.747368421053,4063,324.178947368421,126.010526315789,3107,-252.042105263158,3146,4203,-221.568421052632,-124.242105263158,3205,3799,-253.873684210526,36,0,1555,1767,0,4,4,4,4,4,4,4,4,4,4,4,4,4,4,4,4
"81",4104,161.105263157895,4062,121.105263157895,122.936842105263,2905,-254.094736842105,2951,4203,285.715789473684,-127.831578947368,3016,3797,228.789473684211,37,0,1559,1771,0,4,4,4,4,4,4,4,4,4,4,4,4,4,4,4,4
"82",4108,255.978947368421,4053,213.926315789474,121.905263157895,3017,-253.578947368421,3049,4201,-310.284210526316,-132.957894736842,3116,3795,340.589473684211,38,0,1559,1767,0,4,4,4,4,4,4,4,4,4,4,4,4,4,4,4,4
"83",4117,-38.4947368421053,4067,-112.336842105263,124.473684210526,3544,-252.557894736842,3481,4202,203.557894736842,-125.778947368421,3653,3799,225.094736842105,39,0,1555,1771,0,4,4,4,4,4,4,4,4,4,4,4,4,4,4,4,4
"84",4115,-162.705263157895,4097,-252.957894736842,123.957894736842,4066,-256.147368421053,4046,4201,82.9368421052632,-126.810526315789,4213,3799,48.0631578947368,40,0,1559,1771,0,4,4,4,4,4,4,4,4,4,4,4,4,4,4,4,4
"85",4115,68.5789473684211,4109,-2.18947368421053,124.473684210526,4119,-259.221052631579,4241,4200,163.957894736842,-134.505263157895,4262,3796,20.3684210526316,41,0,1559,1771,0,4,4,4,4,4,4,4,4,4,4,4,4,4,4,4,4
"86",4123,-282.810526315789,4122,342.936842105263,127.042105263158,4480,-256.663157894737,4576,4201,-198.715789473684,-134.505263157895,4600,3800,-317.684210526316,42,0,1559,1767,0,4,4,4,4,4,4,4,4,4,4,4,4,4,4,4,4
"87",4124,-186.4,4139,-264.357894736842,127.042105263158,4668,-255.126315789474,4702,4200,-9.98947368421053,-133.473684210526,4811,3802,-71.0210526315789,43,0,1559,1771,0,4,4,4,4,4,4,4,4,4,4,4,4,4,4,4,4
"88",4115,149.084210526316,4125,50.1157894736842,121.4,4246,-258.715789473684,4361,4199,300.884210526316,-137.578947368421,4402,3792,174.726315789474,44,0,1563,1767,0,4,4,4,4,4,4,4,4,4,4,4,4,4,4,4,4
"89",4108,217.4,4089,144.578947368421,120.884210526316,3561,-257.684210526316,3720,4201,306.631578947368,-132.452631578947,3698,3788,159.452631578947,45,0,1555,1771,0,4,4,4,4,4,4,4,4,4,4,4,4,4,4,4,4
"90",4105,-35.9263157894737,4067,-80.5473684210526,121.905263157895,3427,-257.168421052632,3449,4201,103.042105263158,-126.810526315789,3533,3792,75.3473684210526,46,0,1559,1771,0,4,4,4,4,4,4,4,4,4,4,4,4,4,4,4,4
"91",4104,-234.389473684211,4059,-274.389473684211,120.884210526316,3279,-259.221052631579,3250,4199,-60.5473684210526,-130.915789473684,3389,3790,-49.7789473684211,47,0,1559,1767,0,4,4,4,4,4,4,4,4,4,4,4,4,4,4,4,4
"92",4107,21.1052631578947,4039,-12.2315789473684,120.368421052632,2726,-261.789473684211,2799,4196,103.663157894737,-138.6,2829,3786,35.4631578947368,48,0,1559,1771,0,4,4,4,4,4,4,4,4,4,4,4,4,4,4,4,4
"93",4110,96.4842105263158,4037,61.1052631578947,121.4,2802,-259.736842105263,2873,4189,179.568421052632,-140.136842105263,2906,3788,119.052631578947,49,0,1559,1771,0,4,4,4,4,4,4,4,4,4,4,4,4,4,4,4,4
"94",4117,-154.905263157895,4064,-219.515789473684,122.421052631579,3421,-257.168421052632,3359,4185,95.8631578947368,-137.578947368421,3553,3789,111.757894736842,50,0,1559,1775,0,4,4,4,4,4,4,4,4,4,4,4,4,4,4,4,4
"95",4125,261.505263157895,4091,196.378947368421,124.473684210526,3798,-256.663157894737,3771,4188,-214.505263157895,-139.115789473684,3927,3791,-207.315789473684,51,0,1559,1771,0,4,4,4,4,4,4,4,4,4,4,4,4,4,4,4,4
"96",4133,-245.273684210526,4105,-322.705263157895,124.473684210526,3829,-256.147368421053,3908,4186,-203.726315789474,-140.652631578947,3910,3797,-233.989473684211,52,0,1559,1775,0,4,4,4,4,4,4,4,4,4,4,4,4,4,4,4,4
"97",4136,333.705263157895,4129,230.631578947368,125.494736842105,4468,-256.663157894737,4508,4183,-239.736842105263,-144.242105263158,4577,3791,-281.789473684211,53,0,1563,1771,0,4,4,4,4,4,4,4,4,4,4,4,4,4,4,4,4
"98",4131,-94.6105263157895,4152,-185.378947368421,122.936842105263,4819,-257.684210526316,4808,4187,157.189473684211,-147.315789473684,4991,3784,96.1578947368421,54,0,1555,1771,0,4,4,4,4,4,4,4,4,4,4,4,4,4,4,4,4
"99",4122,310.115789473684,4144,208.063157894737,115.242105263158,4405,-259.736842105263,4495,4189,-264.863157894737,-147.315789473684,4538,3785,304.989473684211,55,0,1563,1775,0,4,4,4,4,4,4,4,4,4,4,4,4,4,4,4,4
"100",4112,-181.168421052632,4112,-286.810526315789,110.631578947368,3829,-262.305263157895,3977,4193,-150.915789473684,-142.189473684211,3942,3788,-278.6,56,0,1559,1771,0,4,4,4,4,4,4,4,4,4,4,4,4,4,4,4,4
"101",4101,275.347368421053,4088,211.252631578947,112.684210526316,3776,-261.273684210526,3777,4202,-203.726315789474,-136.547368421053,3925,3785,-230.915789473684,57,0,1559,1771,0,4,4,4,4,4,4,4,4,4,4,4,4,4,4,4,4
"102",4098,-100.547368421053,4072,-128.747368421053,117.294736842105,3464,-258.2,3405,4204,134.326315789474,-129.368421052632,3593,3789,159.452631578947,58,0,1559,1771,0,4,4,4,4,4,4,4,4,4,4,4,4,4,4,4,4
"103",4102,84.178947368421,4043,57,115.242105263158,2836,-258.715789473684,2860,4202,163.663157894737,-127.831578947368,2905,3792,133.926315789474,59,0,1563,1775,0,4,4,4,4,4,4,4,4,4,4,4,4,4,4,4,4
"104",4097,86.2315789473684,4033,60.0736842105263,114.726315789474,2832,-259.221052631579,2868,4203,181.105263157895,-130.4,2908,3790,126.231578947368,60,0,1559,1771,0,4,4,4,4,4,4,4,4,4,4,4,4,4,4,4,4
"105",4097,299.568421052632,4051,257.515789473684,119.347368421053,3112,-258.715789473684,3103,4204,-225.157894736842,-129.884210526316,3207,3788,-248.242105263158,61,0,1559,1775,0,4,4,4,4,4,4,4,4,4,4,4,4,4,4,4,4
"106",4105,-168.242105263158,4067,-224.136842105263,121.905263157895,3341,-258.2,3327,4199,10.7368421052632,-129.368421052632,3451,3791,-7.72631578947368,62,0,1563,1771,0,4,4,4,4,4,4,4,4,4,4,4,4,4,4,4,4
"107",4117,128.168421052632,4084,59.9684210526316,123.957894736842,3708,-255.631578947368,3650,4201,-296.547368421053,-129.368421052632,3831,3796,-322.18947368421,63,0,1555,1771,0,4,4,4,4,4,4,4,4,4,4,4,4,4,4,4,4
"108",4124,136.273684210526,4123,51.6526315789474,127.042105263158,4393,-254.610526315789,4361,4205,-282.305263157895,-134.505263157895,4531,3798,-344.357894736842,64,0,1559,1771,572,4,4,4,4,4,4,4,4,4,4,4,4,4,4,4,4
"109",4134,-288.452631578947,4145,328.578947368421,128.578947368421,4510,-256.663157894737,4597,4201,-137.168421052632,-140.652631578947,4666,3795,-243.326315789474,65,0,1559,1771,403,4,4,4,4,4,4,4,4,4,4,4,4,4,4,4,4
"110",4134,-287.431578947368,4138,-333.073684210526,123.452631578947,4453,-258.715789473684,4575,4190,-186.4,-142.189473684211,4611,3789,-301.789473684211,66,0,1559,1771,493,4,4,4,4,4,4,4,4,4,4,4,4,4,4,4,4
"111",4131,-336.663157894737,4138,308.063157894737,122.936842105263,4474,-259.736842105263,4539,4191,-185.378947368421,-136.042105263158,4616,3788,-286.4,67,0,1559,1771,463,4,4,4,4,4,4,4,4,4,4,4,4,4,4,4,4
"112",4131,120.884210526316,4141,50.1157894736842,122.936842105263,4295,-257.168421052632,4332,4198,302.421052631579,-135.526315789474,4411,3789,221.905263157895,68,0,1559,1771,501,4,4,4,4,4,4,4,4,4,4,4,4,4,4,4,4
"113",4128,223.042105263158,4117,163.557894736842,120.884210526316,3682,-259.736842105263,3734,4193,-314.505263157895,-143.221052631579,3788,3787,320.484210526316,69,0,1555,1771,514,4,4,4,4,4,4,4,4,4,4,4,4,4,4,4,4
"114",4122,-146.189473684211,4089,-181.568421052632,115.757894736842,3317,-267.947368421053,3340,4183,-0.0315789473684211,-150.915789473684,3429,3785,-19.5157894736842,70,0,1559,1771,505,4,4,4,4,4,4,4,4,4,4,4,4,4,4,4,4
"115",4121,-290.284210526316,4084,-319.010526315789,109.6,3187,-266.915789473684,3200,4189,-105.157894736842,-149.884210526316,3335,3786,-123.105263157895,71,0,1555,1775,6277,4,4,4,4,4,4,4,4,4,4,4,4,4,4,4,4
"116",4122,95.4631578947368,4075,68.2842105263158,108.063157894737,2819,-259.736842105263,2888,4197,230.842105263158,-142.189473684211,2962,3785,178.021052631579,72,0,1555,1771,6270,4,4,4,4,4,4,4,4,4,4,4,4,4,4,4,4
"117",4110,145.715789473684,4055,109.305263157895,112.684210526316,2868,-260.768421052632,2928,4195,251.357894736842,-138.094736842105,2983,3784,209.305263157895,73,0,1551,1775,6373,4,4,4,4,4,4,4,4,4,4,4,4,4,4,4,4
"118",4104,-165.673684210526,4056,-228.242105263158,116.778947368421,3401,-265.378947368421,3350,4194,88.1684210526316,-136.547368421053,3539,3788,98.9368421052632,74,0,1559,1771,6480,4,4,4,4,4,4,4,4,4,4,4,4,4,4,4,4
"119",4105,241.505263157895,4076,181.505263157895,116.273684210526,3778,-262.810526315789,3757,4190,-209.368421052632,-141.684210526316,3927,3789,-202.189473684211,75,0,1551,1771,6020,4,4,4,4,4,4,4,4,4,4,4,4,4,4,4,4
"120",4107,-251.421052631579,4086,-328.863157894737,116.778947368421,3826,-262.810526315789,3907,4188,-186.810526315789,-143.221052631579,3925,3788,-218.6,76,0,1555,1775,6118,4,4,4,4,4,4,4,4,4,4,4,4,4,4,4,4
"121",4109,309.6,4109,202.421052631579,122.421052631579,4446,-264.863157894737,4486,4188,-259.221052631579,-139.631578947368,4555,3788,-309.989473684211,77,0,1555,1771,5754,4,4,4,4,4,4,4,4,4,4,4,4,4,4,4,4
"122",4113,-108.452631578947,4138,-205.894736842105,123.957894736842,4811,-261.273684210526,4796,4193,141.8,-136.042105263158,4973,3793,77.6947368421053,78,0,1555,1771,6480,4,4,4,4,4,4,4,4,4,4,4,4,4,4,4,4
"123",4108,303.452631578947,4132,200.368421052632,116.273684210526,4401,-260.252631578947,4496,4192,-254.094736842105,-138.094736842105,4547,3794,316.778947368421,79,0,1555,1771,6020,4,4,4,4,4,4,4,4,4,4,4,4,4,4,4,4
"124",4097,-186.294736842105,4101,-287.831578947368,114.726315789474,3830,-268.968421052632,3982,4189,-125.273684210526,-136.042105263158,3971,3790,-249.884210526316,80,0,1555,1771,6118,4,4,4,4,4,4,4,4,4,4,4,4,4,4,4,4
"125",4101,280.484210526316,4085,215.347368421053,116.778947368421,3784,-270.505263157895,3784,4189,-188.863157894737,-139.115789473684,3943,3789,-214.505263157895,81,0,1559,1771,5754,4,4,4,4,4,4,4,4,4,4,4,4,4,4,4,4
"126",4112,-75.9263157894737,4075,-108.242105263158,118.831578947368,3485,-263.842105263158,3430,4188,156.894736842105,-145.778947368421,3614,3793,175.347368421053,82,0,1555,1771,6480,4,4,4,4,4,4,4,4,4,4,4,4,4,4,4,4
"127",4106,122.642105263158,4044,92.8947368421053,118.831578947368,2876,-266.915789473684,2907,4186,209.305263157895,-141.684210526316,2949,3794,177,83,0,1559,1771,6020,4,4,4,4,4,4,4,4,4,4,4,4,4,4,4,4
"128",4096,121.105263157895,4033,90.3368421052632,119.347368421053,2877,-268.452631578947,2904,4188,221.610526315789,-132.957894736842,2955,3793,185.2,84,0,1555,1775,6118,4,4,4,4,4,4,4,4,4,4,4,4,4,4,4,4
"129",4097,331.873684210526,4047,288.284210526316,116.273684210526,3155,-266.4,3133,4192,-183.621052631579,-132.452631578947,3251,3793,-200.031578947368,85,0,1559,1775,5754,4,4,4,4,4,4,4,4,4,4,4,4,4,4,4,4
"130",4096,-208.242105263158,4055,-260.031578947368,110.115789473684,3305,-272.042105263158,3294,4189,-16.4421052631579,-139.631578947368,3423,3789,-38.4947368421053,86,0,1559,1771,6480,4,4,4,4,4,4,4,4,4,4,4,4,4,4,4,4
"131",4094,-29.7789473684211,4060,-105.157894736842,108.063157894737,3544,-275.631578947368,3492,4185,231.757894736842,-141.684210526316,3679,3785,239.452631578947,87,0,1559,1771,6020,4,4,4,4,4,4,4,4,4,4,4,4,4,4,4,4
"132",4096,-4.2421052631579,4088,-96.0421052631579,109.084210526316,4247,-270.505263157895,4211,4186,256.778947368421,-142.705263157895,4390,3786,231.136842105263,88,0,1555,1771,6118,4,4,4,4,4,4,4,4,4,4,4,4,4,4,4,4
"133",4102,-336.663157894737,4113,277.810526315789,110.631578947368,4473,-272.557894736842,4539,4191,-184.863157894737,-139.631578947368,4623,3789,-294.094736842105,89,0,1559,1775,5754,4,4,4,4,4,4,4,4,4,4,4,4,4,4,4,4
"134",4098,-341.789473684211,4109,264.473684210526,109.6,4393,-273.578947368421,4515,4189,-243.842105263158,-139.115789473684,4556,3788,318.831578947368,90,0,1559,1767,6480,4,4,4,4,4,4,4,4,4,4,4,4,4,4,4,4
"135",4095,233.189473684211,4102,134.726315789474,115.242105263158,4341,-269.484210526316,4418,4186,-301.273684210526,-140.136842105263,4501,3789,287.042105263158,91,0,1551,1775,6020,4,4,4,4,4,4,4,4,4,4,4,4,4,4,4,4
"136",4106,-6.29473684210526,4108,-91.9368421052632,117.810526315789,4216,-270.505263157895,4203,4194,223.957894736842,-136.042105263158,4333,3786,137.810526315789,92,0,1559,1767,6118,4,4,4,4,4,4,4,4,4,4,4,4,4,4,4,4
"137",4128,181.505263157895,4118,123.042105263158,117.810526315789,3715,-271.536842105263,3689,4210,-295.010526315789,-122.705263157895,3813,3779,327.147368421053,93,0,1551,1767,5754,4,4,4,4,4,4,4,4,4,4,4,4,4,4,4,4
"138",4143,-80.0315789473684,4114,-124.136842105263,120.368421052632,3406,-269.484210526316,3408,4212,85.0947368421053,-119.115789473684,3518,3776,54.8421052631579,94,0,1555,1771,6480,4,4,4,4,4,4,4,4,4,4,4,4,4,4,4,4
"139",4148,-179.515789473684,4107,-208.747368421053,122.421052631579,3306,-271.021052631579,3319,4203,14.8421052631579,-129.368421052632,3453,3773,-4.13684210526316,95,0,1551,1767,6020,4,4,4,4,4,4,4,4,4,4,4,4,4,4,4,4
"140",4150,217.515789473684,4100,200.073684210526,119.347368421053,2976,-273.073684210526,3024,4199,-295.926315789474,-129.368421052632,3117,3769,335.978947368421,96,0,1555,1767,6118,4,4,4,4,4,4,4,4,4,4,4,4,4,4,4,4
"141",4152,323.157894736842,4104,294.431578947368,118.831578947368,3079,-268.968421052632,3118,4203,-220.031578947368,-124.757894736842,3202,3771,-269.263157894737,97,0,1551,1767,5754,4,4,4,4,4,4,4,4,4,4,4,4,4,4,4,4
"142",4154,52.7894736842105,4121,-18.4947368421053,117.810526315789,3645,-267.431578947368,3581,4206,330.736842105263,-129.368421052632,3795,3775,-332.452631578947,98,0,1555,1771,6480,4,4,4,4,4,4,4,4,4,4,4,4,4,4,4,4
"143",4144,-257.578947368421,4132,-326.294736842105,111.136842105263,3958,-272.557894736842,3959,4204,-8.86315789473684,-131.936842105263,4126,3772,-15.5263157894737,99,0,1555,1763,6020,4,4,4,4,4,4,4,4,4,4,4,4,4,4,4,4
"144",4138,-85.2736842105263,4133,-129.884210526316,110.631578947368,3946,-275.631578947368,4072,4204,-29.8842105263158,-125.778947368421,4064,3769,-129.368421052632,100,0,1547,1771,6118,4,4,4,4,4,4,4,4,4,4,4,4,4,4,4,4
"145",4148,-216.147368421053,4157,-283.326315789474,120.884210526316,4606,-269.484210526316,4649,4206,-90.5052631578947,-127.315789473684,4722,3770,-169.484210526316,101,0,1551,1771,5754,4,4,4,4,4,4,4,4,4,4,4,4,4,4,4,4
"146",4156,81.2842105263158,4184,-12.0421052631579,124.989473684211,5021,-262.810526315789,4991,4211,-340.873684210526,-127.831578947368,5192,3772,313.084210526316,102,0,1551,1767,6480,4,4,4,4,4,4,4,4,4,4,4,4,4,4,4,4
"147",4153,-143.842105263158,4182,-236.663157894737,114.726315789474,4628,-268.452631578947,4714,4208,-34.0947368421053,-127.315789473684,4773,3771,-143.842105263158,103,0,1551,1767,6020,4,4,4,4,4,4,4,4,4,4,4,4,4,4,4,4
"148",4156,113.189473684211,4166,30.1157894736842,113.705263157895,4119,-275.631578947368,4251,4206,146.010526315789,-132.452631578947,4242,3769,5.49473684210526,104,0,1551,1771,6118,4,4,4,4,4,4,4,4,4,4,4,4,4,4,4,4
"149",4156,-135.526315789474,4155,-216.547368421053,122.936842105263,4081,-268.452631578947,4070,4206,112.168421052632,-132.452631578947,4247,3769,83.9578947368421,105,0,1555,1767,5754,4,4,4,4,4,4,4,4,4,4,4,4,4,4,4,4
"150",4153,100.484210526316,4135,40.9894736842105,124.989473684211,3686,-262.305263157895,3630,4204,-300.652631578947,-127.315789473684,3850,3775,-273.989473684211,106,0,1551,1767,6480,4,4,4,4,4,4,4,4,4,4,4,4,4,4,4,4
"151",4164,272.894736842105,4112,235.463157894737,123.452631578947,3041,-265.378947368421,3061,4201,-295.926315789474,-131.421052631579,3133,3780,-335.421052631579,107,0,1555,1767,6020,4,4,4,4,4,4,4,4,4,4,4,4,4,4,4,4
"152",4172,331.873684210526,4115,286.747368421053,126.010526315789,3096,-262.810526315789,3127,4201,-239.010526315789,-131.936842105263,3180,3777,-303.105263157895,108,0,1551,1771,6118,4,4,4,4,4,4,4,4,4,4,4,4,4,4,4,4
"153",4162,-126.189473684211,4126,-191.831578947368,120.884210526316,3409,-264.357894736842,3390,4205,91.2526315789474,-121.168421052632,3528,3776,72.2736842105263,109,0,1555,1771,5754,4,4,4,4,4,4,4,4,4,4,4,4,4,4,4,4
"154",4143,30.7368421052632,4123,-20.0315789473684,114.221052631579,3562,-269.989473684211,3538,4207,243.557894736842,-120.652631578947,3687,3775,237.4,110,0,1555,1771,6480,4,4,4,4,4,4,4,4,4,4,4,4,4,4,4,4
"155",4141,267.147368421053,4124,212.273684210526,117.810526315789,3824,-265.894736842105,3777,4214,-213.473684210526,-124.757894736842,3917,3773,-228.863157894737,111,0,1559,1767,6020,4,4,4,4,4,4,4,4,4,4,4,4,4,4,4,4
"156",4151,312.684210526316,4155,221.905263157895,121.4,4552,-260.252631578947,4527,4218,-165.894736842105,-122.189473684211,4654,3771,-216.663157894737,112,0,1551,1771,6118,4,4,4,4,4,4,4,4,4,4,4,4,4,4,4,4
"157",4154,-57.6842105263158,4179,-143.326315789474,121.905263157895,4763,-263.326315789474,4831,4223,97.6947368421053,-122.189473684211,4908,3771,1.28421052631579,113,0,1559,1771,5754,4,4,4,4,4,4,4,4,4,4,4,4,4,4,4,4
"158",4147,-77.1684210526316,4175,-136.663157894737,122.421052631579,4690,-264.863157894737,4777,4223,23.8526315789474,-130.4,4828,3772,-71.5368421052632,114,0,1555,1767,6480,4,4,4,4,4,4,4,4,4,4,4,4,4,4,4,4
"159",4144,-178.715789473684,4174,-242.810526315789,122.936842105263,4637,-261.273684210526,4683,4218,-56.6631578947368,-128.863157894737,4749,3775,-141.273684210526,115,0,1555,1771,6020,4,4,4,4,4,4,4,4,4,4,4,4,4,4,4,4
"160",4151,309.084210526316,4178,221.4,122.936842105263,4444,-261.273684210526,4529,4216,-214.094736842105,-127.315789473684,4574,3772,-340.252631578947,116,0,1555,1771,6118,4,4,4,4,4,4,4,4,4,4,4,4,4,4,4,4
"161",4161,-239.631578947368,4161,-318.6,124.989473684211,3845,-260.768421052632,3976,4217,-87.3157894736842,-130.915789473684,3997,3774,-222.705263157895,117,0,1555,1771,5754,4,4,4,4,4,4,4,4,4,4,4,4,4,4,4,4
"162",4161,38.4315789473684,4132,-15.9263157894737,127.042105263158,3497,-259.221052631579,3529,4209,195.347368421053,-127.315789473684,3621,3782,151.757894736842,118,0,1555,1771,6480,4,4,4,4,4,4,4,4,4,4,4,4,4,4,4,4
"163",4156,-105.673684210526,4128,-142.6,124.473684210526,3419,-257.684210526316,3388,4207,98.9368421052632,-119.115789473684,3545,3779,103.557894736842,119,0,1555,1771,6020,4,4,4,4,4,4,4,4,4,4,4,4,4,4,4,4
"164",4158,-330.284210526316,4127,327.252631578947,121.905263157895,3117,-261.789473684211,3164,4210,-173.368421052632,-124.242105263158,3246,3772,-231.315789473684,120,0,1555,1771,6118,4,4,4,4,4,4,4,4,4,4,4,4,4,4,4,4
"165",4165,-261.568421052632,4120,-298.494736842105,122.936842105263,3187,-263.326315789474,3227,4207,-113.368421052632,-132.957894736842,3308,3770,-162.084210526316,121,0,1555,1775,5754,4,4,4,4,4,4,4,4,4,4,4,4,4,4,4,4
"166",4167,122.536842105263,4128,37.4,123.452631578947,3742,-259.221052631579,3654,4215,-270.915789473684,-125.778947368421,3878,3770,-224.242105263158,122,0,1559,1771,6480,4,4,4,4,4,4,4,4,4,4,4,4,4,4,4,4
"167",4157,8.06315789473684,4159,-83.7263157894737,119.863157894737,4246,-260.768421052632,4229,4230,256.273684210526,-118.6,4391,3766,242.421052631579,123,0,1551,1771,6020,4,4,4,4,4,4,4,4,4,4,4,4,4,4,4,4
"168",4157,279.347368421053,4179,237.294736842105,120.884210526316,4324,-262.810526315789,4444,4233,340.368421052632,-119.115789473684,4441,3768,200.368421052632,124,0,1555,1775,6118,4,4,4,4,4,4,4,4,4,4,4,4,4,4,4,4
"169",4165,11.0315789473684,4195,-38.7157894736842,123.452631578947,4829,-259.736842105263,4884,4232,149.494736842105,-123.221052631579,4961,3770,46.4210526315789,125,0,1555,1771,5754,4,4,4,4,4,4,4,4,4,4,4,4,4,4,4,4
"170",4176,212.568421052632,4211,137.694736842105,124.989473684211,5133,-257.168421052632,5131,4235,-207.021052631579,-119.631578947368,5324,3770,-234.210526315789,126,0,1555,1771,6480,4,4,4,4,4,4,4,4,4,4,4,4,4,4,4,4
"171",4183,-0.768421052631579,4217,-42.3052631578947,124.473684210526,4741,-258.715789473684,4869,4228,103.336842105263,-120.652631578947,4915,3769,2.83157894736842,127,0,1551,1771,6020,4,4,4,4,4,4,4,4,4,4,4,4,4,4,4,4
"172",4191,201.4,4212,179.347368421053,124.473684210526,4169,-259.736842105263,4346,4222,224.473684210526,-127.831578947368,4321,3770,76.2736842105263,128,0,1555,1775,6118,4,4,4,4,4,4,4,4,4,4,4,4,4,4,4,4
"173",4199,-98.0947368421053,4204,-164.242105263158,124.473684210526,4096,-260.768421052632,4109,4224,147.547368421053,-133.473684210526,4276,3770,108.063157894737,0,0,1555,1767,572,4,4,4,4,4,4,4,4,4,4,4,4,4,4,4,4
"174",4202,180.989473684211,4188,122.536842105263,124.473684210526,3763,-261.273684210526,3714,4219,-194.505263157895,-133.473684210526,3954,3769,-171.936842105263,1,0,1551,1775,403,4,4,4,4,4,4,4,4,4,4,4,4,4,4,4,4
"175",4204,-318.494736842105,4163,-339.010526315789,124.989473684211,3103,-260.252631578947,3149,4216,-190.8,-133.989473684211,3239,3771,-225.157894736842,2,0,1555,1771,493,4,4,4,4,4,4,4,4,4,4,4,4,4,4,4,4
"176",4204,-238.494736842105,4161,-281.063157894737,124.989473684211,3186,-259.736842105263,3235,4218,-119.010526315789,-135.010526315789,3308,3771,-161.063157894737,3,0,1551,1771,463,4,4,4,4,4,4,4,4,4,4,4,4,4,4,4,4
"177",4198,50.7368421052632,4175,-23.1052631578947,122.936842105263,3645,-259.736842105263,3589,4225,-338.094736842105,-130.4,3808,3770,-323.726315789474,4,0,1555,1775,501,4,4,4,4,4,4,4,4,4,4,4,4,4,4,4,4
"178",4191,-341.168421052632,4187,297.915789473684,121.905263157895,3860,-258.715789473684,3858,4232,-120.652631578947,-127.831578947368,4008,3770,-126.810526315789,5,0,1555,1771,514,4,4,4,4,4,4,4,4,4,4,4,4,4,4,4,4
"179",4186,-23.7263157894737,4194,-77.0631578947368,122.421052631579,4032,-259.736842105263,4119,4234,4.98947368421053,-128.347368421053,4100,3772,-48.3473684210526,6,0,1555,1771,505,4,4,4,4,4,4,4,4,4,4,4,4,4,4,4,4
"180",4181,-76.6631578947368,4215,-160.252631578947,121.905263157895,4746,-258.715789473684,4788,4232,15.1368421052632,-125.778947368421,4823,3772,-38.7157894736842,7,0,1551,1771,6299,4,4,4,4,4,4,4,4,4,4,4,4,4,4,4,4
"181",4175,146.926315789474,4234,70.0105263157895,120.884210526316,5025,-257.168421052632,5045,4238,337.18947368421,-117.578947368421,5168,3772,276.673684210526,8,0,1555,1771,6306,4,4,4,4,4,4,4,4,4,4,4,4,4,4,4,4
"182",4172,77.6947368421053,4223,29.4947368421053,119.347368421053,4892,-258.2,4943,4237,208.978947368421,-121.168421052632,5022,3771,128.463157894737,9,0,1559,1767,6408,4,4,4,4,4,4,4,4,4,4,4,4,4,4,4,4
"183",4176,-31.0210526315789,4214,-89.9894736842105,120.884210526316,4770,-259.221052631579,4826,4231,74.6210526315789,-125.778947368421,4877,3773,-11.5368421052632,10,0,1551,1771,6508,4,4,4,4,4,4,4,4,4,4,4,4,4,4,4,4
"184",4185,-160.768421052632,4226,-269.989473684211,123.957894736842,4601,-256.663157894737,4722,4232,-62.8105263157895,-122.705263157895,4732,3779,-186.915789473684,11,0,1559,1771,6059,4,4,4,4,4,4,4,4,4,4,4,4,4,4,4,4
"185",4192,4.47368421052632,4217,-96.5473684210526,126.526315789474,4007,-254.094736842105,4188,4233,55.2421052631579,-118.6,4146,3783,-83.7263157894737,12,0,1555,1771,6143,4,4,4,4,4,4,4,4,4,4,4,4,4,4,4,4
"186",4188,156.894736842105,4182,106.126315789474,126.526315789474,3599,-255.126315789474,3645,4230,296.378947368421,-117.578947368421,3717,3782,248.684210526316,13,0,1555,1771,5810,4,4,4,4,4,4,4,4,4,4,4,4,4,4,4,4
"187",4182,-15.4210526315789,4172,-49.2631578947368,124.989473684211,3528,-255.631578947368,3490,4227,234.326315789474,-117.578947368421,3676,3784,239.968421052632,14,0,1555,1771,6508,4,4,4,4,4,4,4,4,4,4,4,4,4,4,4,4
"188",4179,-189.778947368421,4167,-227.210526315789,122.421052631579,3239,-258.2,3304,4222,-25.1578947368421,-120.652631578947,3395,3782,-80.5473684210526,15,0,1559,1767,6059,4,4,4,4,4,4,4,4,4,4,4,4,4,4,4,4
"189",4177,-139.010526315789,4158,-169.778947368421,123.452631578947,3305,-258.715789473684,3352,4219,7.14736842105263,-126.294736842105,3432,3776,-39.0105263157895,16,0,1551,1771,0,4,4,4,4,4,4,4,4,4,4,4,4,4,4,4,4
"190",4180,230.221052631579,4175,156.894736842105,120.884210526316,3864,-258.2,3766,4224,-149.884210526316,-123.221052631579,4001,3776,-104.757894736842,17,0,1555,1767,0,4,4,4,4,4,4,4,4,4,4,4,4,4,4,4,4
"191",4175,13.1894736842105,4194,-73.9894736842105,115.757894736842,4246,-260.252631578947,4228,4221,273.18947368421,-120.136842105263,4407,3777,255.757894736842,18,0,1555,1771,0,4,4,4,4,4,4,4,4,4,4,4,4,4,4,4,4
"192",4166,189.084210526316,4188,147.547368421053,115.757894736842,4223,-261.273684210526,4345,4222,240.884210526316,-120.652631578947,4342,3775,112.684210526316,19,0,1551,1771,0,4,4,4,4,4,4,4,4,4,4,4,4,4,4,4,4
"193",4159,-49.9894736842105,4195,-109.989473684211,115.242105263158,4765,-258.715789473684,4813,4229,63.3368421052632,-124.757894736842,4877,3775,-23.3263157894737,20,0,1555,1771,0,4,4,4,4,4,4,4,4,4,4,4,4,4,4,4,4
"194",4161,205.389473684211,4211,111.547368421053,117.294736842105,5137,-257.684210526316,5109,4231,-225.484210526316,-120.652631578947,5303,3781,-249.073684210526,21,0,1555,1771,0,4,4,4,4,4,4,4,4,4,4,4,4,4,4,4,4
"195",4158,29.4947368421053,4205,-20.2526315789474,122.936842105263,4794,-258.2,4889,4228,124.368421052632,-114.505263157895,4935,3782,35.6421052631579,22,0,1551,1775,0,4,4,4,4,4,4,4,4,4,4,4,4,4,4,4,4
"196",4161,326.526315789474,4187,301.4,126.010526315789,4331,-257.684210526316,4471,4233,338.315789473684,-116.042105263158,4441,3781,209.6,23,0,1555,1775,0,4,4,4,4,4,4,4,4,4,4,4,4,4,4,4,4
"197",4164,37.8105263157895,4181,-44.2421052631579,121.4,4256,-256.147368421053,4244,4230,286.010526315789,-120.652631578947,4414,3781,220.884210526316,24,0,1555,1771,0,4,4,4,4,4,4,4,4,4,4,4,4,4,4,4,4
"198",4161,218.431578947368,4169,138.936842105263,119.347368421053,3791,-257.168421052632,3746,4222,-173.989473684211,-120.652631578947,3962,3782,-206.294736842105,25,0,1555,1771,0,4,4,4,4,4,4,4,4,4,4,4,4,4,4,4,4
"199",4156,-308.747368421053,4134,-342.6,122.421052631579,3122,-259.736842105263,3165,4226,-200.547368421053,-118.6,3224,3783,-246.189473684211,26,0,1551,1771,0,4,4,4,4,4,4,4,4,4,4,4,4,4,4,4,4
"200",4154,-274.905263157895,4128,-316.957894736842,124.473684210526,3154,-253.073684210526,3208,4231,-165.673684210526,-117.578947368421,3254,3785,-210.8,27,0,1555,1771,0,4,4,4,4,4,4,4,4,4,4,4,4,4,4,4,4
"201",4156,-100.547368421053,4150,-166.694736842105,122.936842105263,3416,-248.968421052632,3419,4228,127.663157894737,-118.6,3558,3786,89.7157894736842,28,0,1555,1771,0,4,4,4,4,4,4,4,4,4,4,4,4,4,4,4,4
"202",4152,79.4526315789474,4158,28.6842105263158,120.884210526316,3594,-255.126315789474,3578,4224,285.610526315789,-118.094736842105,3720,3784,255.347368421053,29,0,1551,1771,0,4,4,4,4,4,4,4,4,4,4,4,4,4,4,4,4
"203",4152,-306.294736842105,4156,328.684210526316,122.421052631579,3936,-259.736842105263,3877,4223,-111.936842105263,-110.915789473684,4015,3785,-118.6,30,0,1555,1767,0,4,4,4,4,4,4,4,4,4,4,4,4,4,4,4,4
"204",4151,334.726315789474,4184,251.136842105263,118.831578947368,4567,-257.684210526316,4544,4222,-150.505263157895,-111.936842105263,4666,3784,-187.947368421053,31,0,1551,1771,0,4,4,4,4,4,4,4,4,4,4,4,4,4,4,4,4
"205",4145,-115.126315789474,4202,-198.2,115.757894736842,4672,-257.168421052632,4770,4224,19.7473684210526,-115.526315789474,4826,3786,-80.7684210526316,32,0,1555,1771,0,4,4,4,4,4,4,4,4,4,4,4,4,4,4,4,4
"206",4137,-44.8631578947368,4192,-98.7157894736842,119.347368421053,4723,-258.2,4814,4224,77.1894736842105,-115.010526315789,4886,3789,-13.5789473684211,33,0,1551,1767,0,4,4,4,4,4,4,4,4,4,4,4,4,4,4,4,4
"207",4141,-35.6315789473684,4193,-91.5368421052632,123.957894736842,4810,-258.2,4837,4219,136.157894736842,-115.526315789474,4955,3787,82.3157894736842,34,0,1555,1771,0,4,4,4,4,4,4,4,4,4,4,4,4,4,4,4,4
"208",4152,-182.305263157895,4199,-287.947368421053,123.452631578947,4585,-257.684210526316,4700,4218,-82.8105263157895,-119.115789473684,4716,3786,-193.578947368421,35,0,1555,1771,0,4,4,4,4,4,4,4,4,4,4,4,4,4,4,4,4
"209",4161,-5.27368421052632,4187,-105.778947368421,123.957894736842,3987,-255.631578947368,4173,4220,47.0421052631579,-118.094736842105,4141,3790,-96.0421052631579,36,0,1555,1771,0,4,4,4,4,4,4,4,4,4,4,4,4,4,4,4,4
"210",4164,250.736842105263,4164,195.863157894737,126.526315789474,3714,-255.126315789474,3747,4217,-250.4,-118.094736842105,3873,3790,-284.757894736842,37,0,1555,1771,0,4,4,4,4,4,4,4,4,4,4,4,4,4,4,4,4
"211",4161,0.484210526315789,4152,-41.0631578947368,126.526315789474,3550,-253.578947368421,3502,4217,247.147368421053,-120.136842105263,3696,3789,273.810526315789,38,0,1555,1775,0,4,4,4,4,4,4,4,4,4,4,4,4,4,4,4,4
"212",4156,-295.926315789474,4139,-335.421052631579,124.473684210526,3123,-246.915789473684,3179,4228,-173.873684210526,-115.010526315789,3244,3794,-226.189473684211,39,0,1555,1767,0,4,4,4,4,4,4,4,4,4,4,4,4,4,4,4,4
"213",4151,-255.926315789474,4129,-288.747368421053,124.989473684211,3175,-245.378947368421,3219,4225,-137.978947368421,-112.452631578947,3278,3796,-192.336842105263,40,0,1555,1775,0,4,4,4,4,4,4,4,4,4,4,4,4,4,4,4,4
"214",4150,71.2526315789474,4135,-9.77894736842105,124.989473684211,3693,-253.578947368421,3596,4218,-341.168421052632,-113.473684210526,3802,3790,-302.705263157895,41,0,1559,1771,0,4,4,4,4,4,4,4,4,4,4,4,4,4,4,4,4
"215",4150,-156.547368421053,4154,-246.294736842105,125.494736842105,4054,-255.631578947368,4049,4215,68.0631578947368,-117.063157894737,4198,3788,40.8842105263158,42,0,1555,1767,0,4,4,4,4,4,4,4,4,4,4,4,4,4,4,4,4
"216",4155,130.631578947368,4172,90.6315789473684,127.547368421053,4151,-252.042105263158,4284,4214,180.368421052632,-121.168421052632,4275,3794,34.7263157894737,43,0,1559,1771,0,4,4,4,4,4,4,4,4,4,4,4,4,4,4,4,4
"217",4158,11.0315789473684,4200,-54.6105263157895,128.578947368421,4837,-247.947368421053,4876,4215,124.873684210526,-121.168421052632,4926,3795,25.3894736842105,44,0,1555,1771,0,4,4,4,4,4,4,4,4,4,4,4,4,4,4,4,4
"218",4158,238.210526315789,4221,133.6,130.631578947368,5188,-246.915789473684,5143,4217,-218.821052631579,-113.989473684211,5299,3797,-247.021052631579,45,0,1559,1767,0,4,4,4,4,4,4,4,4,4,4,4,4,4,4,4,4
"219",4150,-5.37894736842105,4207,-61.2736842105263,131.136842105263,4772,-251.536842105263,4852,4214,82.3157894736842,-114.505263157895,4887,3798,-23.3263157894737,46,0,1555,1771,0,4,4,4,4,4,4,4,4,4,4,4,4,4,4,4,4
"220",4146,255.757894736842,4183,228.063157894737,127.547368421053,4257,-257.168421052632,4393,4214,276.273684210526,-119.631578947368,4371,3797,128.578947368421,47,0,1555,1775,0,4,4,4,4,4,4,4,4,4,4,4,4,4,4,4,4
"221",4147,-10.4,4171,-95.0105263157895,126.526315789474,4197,-252.042105263158,4188,4219,225.494736842105,-116.547368421053,4350,3798,179.347368421053,48,0,1559,1767,0,4,4,4,4,4,4,4,4,4,4,4,4,4,4,4,4
"222",4147,199.452631578947,4153,121.505263157895,131.652631578947,3770,-245.894736842105,3726,4217,-206.810526315789,-110.915789473684,3931,3801,-205.273684210526,49,0,1551,1775,0,4,4,4,4,4,4,4,4,4,4,4,4,4,4,4,4
"223",4148,-327.726315789474,4121,330.842105263158,132.684210526316,3094,-251.021052631579,3145,4214,-227.726315789474,-114.505263157895,3197,3801,-273.873684210526,50,0,1559,1771,0,4,4,4,4,4,4,4,4,4,4,4,4,4,4,4,4
"224",4153,-286.694736842105,4115,-336.957894736842,133.189473684211,3136,-250.505263157895,3188,4216,-186.694736842105,-118.094736842105,3234,3798,-242.6,51,0,1555,1767,0,4,4,4,4,4,4,4,4,4,4,4,4,4,4,4,4
"225",4154,-77.4631578947368,4133,-152.336842105263,136.273684210526,3476,-245.894736842105,3441,4216,174.326315789474,-117.578947368421,3613,3800,156.894736842105,52,0,1555,1771,0,4,4,4,4,4,4,4,4,4,4,4,4,4,4,4,4
"226",4154,204.073684210526,4148,151.757894736842,138.315789473684,3699,-245.378947368421,3696,4215,-306.294736842105,-115.010526315789,3819,3803,-316.042105263158,53,0,1555,1771,0,4,4,4,4,4,4,4,4,4,4,4,4,4,4,4,4
"227",4165,-115.526315789474,4161,-185.273684210526,140.368421052632,3977,-245.378947368421,4038,4218,-84.2421052631579,-108.347368421053,4032,3808,-104.757894736842,54,0,1555,1771,0,4,4,4,4,4,4,4,4,4,4,4,4,4,4,4,4
"228",4165,-102.305263157895,4190,-199.221052631579,139.863157894737,4736,-244.357894736842,4779,4221,-3.84210526315789,-110.915789473684,4808,3808,-52.5578947368421,55,0,1559,1775,0,4,4,4,4,4,4,4,4,4,4,4,4,4,4,4,4
"229",4154,109.494736842105,4211,37.6947368421053,137.810526315789,4991,-245.378947368421,5007,4218,314.105263157895,-115.526315789474,5134,3806,248.463157894737,56,0,1559,1771,0,4,4,4,4,4,4,4,4,4,4,4,4,4,4,4,4
"230",4151,72.0526315789474,4208,26.4210526315789,134.726315789474,4857,-245.894736842105,4921,4216,188.978947368421,-112.452631578947,5004,3805,116.157894736842,57,0,1559,1771,0,4,4,4,4,4,4,4,4,4,4,4,4,4,4,4,4
"231",4154,-129.484210526316,4196,-184.357894736842,136.273684210526,4623,-243.842105263158,4718,4222,-44.8631578947368,-106.294736842105,4758,3803,-142.810526315789,58,0,1559,1771,0,4,4,4,4,4,4,4,4,4,4,4,4,4,4,4,4
"232",4153,214.221052631579,4180,137.294736842105,136.778947368421,4419,-245.894736842105,4429,4224,-238.2,-111.421052631579,4567,3802,-326.4,59,0,1559,1775,0,4,4,4,4,4,4,4,4,4,4,4,4,4,4,4,4
"233",4152,261.505263157895,4154,207.147368421053,135.757894736842,3793,-245.894736842105,3784,4219,-174.505263157895,-116.042105263158,3947,3804,-217.063157894737,60,0,1559,1771,0,4,4,4,4,4,4,4,4,4,4,4,4,4,4,4,4
"234",4154,-219.010526315789,4126,-248.747368421053,136.778947368421,3199,-245.894736842105,3254,4213,-101.568421052632,-113.473684210526,3325,3802,-132.336842105263,61,0,1555,1775,0,4,4,4,4,4,4,4,4,4,4,4,4,4,4,4,4
"235",4159,-181.568421052632,4132,-229.263157894737,141.4,3249,-245.894736842105,3304,4215,-51.8315789473684,-112.957894736842,3372,3807,-99.5157894736842,62,0,1559,1775,0,4,4,4,4,4,4,4,4,4,4,4,4,4,4,4,4
"236",4163,-85.1578947368421,4146,-156.957894736842,140.368421052632,3451,-243.842105263158,3435,4215,152.789473684211,-116.042105263158,3581,3810,113.810526315789,63,0,1555,1771,0,4,4,4,4,4,4,4,4,4,4,4,4,4,4,4,4
"237",4154,144.578947368421,4147,90.7368421052632,135.242105263158,3634,-242.305263157895,3638,4209,320.484210526316,-119.631578947368,3755,3805,299.452631578947,64,0,1555,1771,572,4,4,4,4,4,4,4,4,4,4,4,4,4,4,4,4
"238",4150,-198.6,4154,-266.810526315789,136.778947368421,3928,-244.863157894737,3972,4211,-120.652631578947,-112.452631578947,4004,3805,-138.6,65,0,1551,1771,404,4,4,4,4,4,4,4,4,4,4,4,4,4,4,4,4
"239",4157,-161.273684210526,4182,-261.789473684211,141.4,4696,-245.894736842105,4731,4216,-40.2526315789474,-108.347368421053,4773,3810,-89.9894736842105,66,0,1555,1771,493,4,4,4,4,4,4,4,4,4,4,4,4,4,4,4,4
"240",4155,55.1368421052632,4191,-33.0736842105263,140.368421052632,4915,-244.863157894737,4944,4214,227.442105263158,-111.421052631579,5043,3811,154.621052631579,67,0,1555,1767,463,4,4,4,4,4,4,4,4,4,4,4,4,4,4,4,4
"241",4140,-19.2210526315789,4180,-73.5789473684211,135.242105263158,4746,-246.915789473684,4825,4210,78.7263157894737,-118.094736842105,4893,3806,-2.30526315789474,68,0,1551,1771,501,4,4,4,4,4,4,4,4,4,4,4,4,4,4,4,4
"242",4139,-206.915789473684,4179,-256.147368421053,136.273684210526,4538,-245.378947368421,4644,4221,-120.768421052632,-110.915789473684,4686,3808,-214.610526315789,69,0,1555,1767,514,4,4,4,4,4,4,4,4,4,4,4,4,4,4,4,4
"243",4138,253.189473684211,4179,169.6,135.757894736842,4425,-242.810526315789,4463,4231,-231.536842105263,-102.189473684211,4572,3808,-321.273684210526,70,0,1551,1771,505,4,4,4,4,4,4,4,4,4,4,4,4,4,4,4,4
"244",4127,334.326315789474,4151,268.168421052632,133.189473684211,3824,-245.378947368421,3844,4230,-145.778947368421,-103.726315789474,3970,3808,-202.705263157895,71,0,1555,1771,6290,4,4,4,4,4,4,4,4,4,4,4,4,4,4,4,4
"245",4125,-215.421052631579,4110,-245.673684210526,132.168421052632,3201,-248.968421052632,3254,4225,-101.568421052632,-110.915789473684,3322,3809,-136.442105263158,72,0,1551,1767,6290,4,4,4,4,4,4,4,4,4,4,4,4,4,4,4,4
"246",4137,-213.873684210526,4107,-259.515789473684,135.757894736842,3226,-245.378947368421,3274,4226,-71.3157894736842,-110.915789473684,3353,3809,-112.852631578947,73,0,1555,1775,6388,4,4,4,4,4,4,4,4,4,4,4,4,4,4,4,4
"247",4146,-106.694736842105,4124,-177.463157894737,141.4,3399,-241.789473684211,3411,4229,114.326315789474,-106.810526315789,3543,3812,71.2526315789474,74,0,1551,1775,6523,4,4,4,4,4,4,4,4,4,4,4,4,4,4,4,4
"248",4141,72.7894736842105,4126,27.6631578947368,141.4,3568,-242.305263157895,3561,4221,262.021052631579,-110.915789473684,3691,3814,233.810526315789,75,0,1559,1771,6108,4,4,4,4,4,4,4,4,4,4,4,4,4,4,4,4
"249",4142,-337.578947368421,4131,291.757894736842,138.315789473684,3882,-243.842105263158,3830,4213,-169.884210526316,-112.452631578947,3952,3815,-190.915789473684,76,0,1555,1771,6185,4,4,4,4,4,4,4,4,4,4,4,4,4,4,4,4
"250",4151,-253.073684210526,4169,336.778947368421,138.831578947368,4668,-242.305263157895,4638,4213,-60.7684210526316,-113.473684210526,4753,3813,-115.631578947368,77,0,1555,1779,5873,4,4,4,4,4,4,4,4,4,4,4,4,4,4,4,4
"251",4156,58.2105263157895,4195,-30.5052631578947,140.884210526316,4906,-243.326315789474,4951,4218,231.031578947368,-114.505263157895,5044,3813,156.673684210526,78,0,1559,1771,6523,4,4,4,4,4,4,4,4,4,4,4,4,4,4,4,4
"252",4142,9.49473684210526,4181,-49.4842105263158,138.831578947368,4767,-247.431578947368,4855,4211,94.6210526315789,-119.115789473684,4900,3808,10.5157894736842,79,0,1555,1775,6108,4,4,4,4,4,4,4,4,4,4,4,4,4,4,4,4
"253",4132,-204.357894736842,4165,-264.863157894737,136.778947368421,4554,-247.431578947368,4642,4211,-119.736842105263,-114.505263157895,4679,3809,-222.305263157895,80,0,1559,1775,6185,4,4,4,4,4,4,4,4,4,4,4,4,4,4,4,4
"254",4136,234.221052631579,4167,150.115789473684,138.831578947368,4419,-243.326315789474,4448,4217,-244.863157894737,-108.347368421053,4559,3811,-328.968421052632,81,0,1555,1771,5873,4,4,4,4,4,4,4,4,4,4,4,4,4,4,4,4
"255",4141,280.989473684211,4152,222.536842105263,139.347368421053,3789,-243.842105263158,3803,4217,-183.221052631579,-109.884210526316,3939,3809,-227.315789473684,82,0,1555,1775,6523,4,4,4,4,4,4,4,4,4,4,4,4,4,4,4,4
"256",4132,-282.6,4112,-310.8,129.6,3138,-246.915789473684,3190,4215,-167.726315789474,-114.505263157895,3262,3807,-199.010526315789,83,0,1555,1775,6108,4,4,4,4,4,4,4,4,4,4,4,4,4,4,4,4
"257",4125,-270.284210526316,4103,-313.873684210526,124.989473684211,3161,-248.452631578947,3212,4218,-148.242105263158,-115.010526315789,3276,3802,-185.157894736842,84,0,1559,1775,6185,4,4,4,4,4,4,4,4,4,4,4,4,4,4,4,4
"258",4133,-174.389473684211,4117,-235.421052631579,130.115789473684,3337,-248.452631578947,3339,4223,32.7894736842105,-110.915789473684,3461,3799,0.989473684210526,85,0,1551,1771,5873,4,4,4,4,4,4,4,4,4,4,4,4,4,4,4,4
"259",4131,22.0210526315789,4117,-19.0105263157895,130.631578947368,3516,-245.894736842105,3511,4221,203.557894736842,-113.989473684211,3634,3801,179.968421052632,86,0,1555,1779,6523,4,4,4,4,4,4,4,4,4,4,4,4,4,4,4,4
"260",4126,326.631578947368,4112,266.631578947368,126.526315789474,3832,-249.484210526316,3807,4217,-208.863157894737,-118.094736842105,3911,3802,-225.273684210526,87,0,1559,1771,6108,4,4,4,4,4,4,4,4,4,4,4,4,4,4,4,4
"261",4130,-318.715789473684,4141,276.273684210526,128.063157894737,4572,-255.126315789474,4566,4215,-154.094736842105,-120.136842105263,4657,3798,-203.842105263158,88,0,1551,1775,6185,4,4,4,4,4,4,4,4,4,4,4,4,4,4,4,4
"262",4138,-54.6105263157895,4175,-137.168421052632,129.084210526316,4777,-254.610526315789,4829,4216,99.2315789473684,-116.042105263158,4910,3803,16.1578947368421,89,0,1555,1775,5873,4,4,4,4,4,4,4,4,4,4,4,4,4,4,4,4
"263",4133,-66.9157894736842,4180,-122.305263157895,127.547368421053,4683,-247.431578947368,4784,4214,18.2105263157895,-114.505263157895,4822,3803,-75.6315789473684,90,0,1559,1775,6523,4,4,4,4,4,4,4,4,4,4,4,4,4,4,4,4
"264",4129,-276.663157894737,4165,-326.4,130.115789473684,4475,-248.452631578947,4577,4213,-180.768421052632,-118.6,4619,3799,-285.378947368421,91,0,1555,1775,6108,4,4,4,4,4,4,4,4,4,4,4,4,4,4,4,4
"265",4133,104.473684210526,4158,32.1684210526316,129.6,4297,-252.557894736842,4312,4212,-343.842105263158,-120.652631578947,4464,3799,255.757894736842,92,0,1555,1775,6185,4,4,4,4,4,4,4,4,4,4,4,4,4,4,4,4
"266",4139,212.789473684211,4150,155.863157894737,131.652631578947,3737,-251.021052631579,3727,4211,-219.631578947368,-119.115789473684,3904,3802,-267.831578947368,93,0,1555,1771,5873,4,4,4,4,4,4,4,4,4,4,4,4,4,4,4,4
"267",4141,-242.084210526316,4117,-272.336842105263,131.652631578947,3184,-249.989473684211,3233,4210,-117.978947368421,-121.168421052632,3309,3800,-149.263157894737,94,0,1555,1775,6523,4,4,4,4,4,4,4,4,4,4,4,4,4,4,4,4
"268",4135,-222.084210526316,4110,-266.18947368421,131.652631578947,3213,-247.947368421053,3267,4216,-90.2842105263158,-117.063157894737,3332,3801,-137.463157894737,95,0,1555,1775,6108,4,4,4,4,4,4,4,4,4,4,4,4,4,4,4,4
"269",4133,-128.747368421053,4130,-194.905263157895,136.778947368421,3383,-243.326315789474,3388,4226,92.7894736842105,-105.778947368421,3522,3807,44.5789473684211,96,0,1555,1775,6185,4,4,4,4,4,4,4,4,4,4,4,4,4,4,4,4
"270",4128,43.0421052631579,4129,-2.6,134.726315789474,3548,-241.789473684211,3539,4224,239.452631578947,-106.294736842105,3676,3803,213.305263157895,97,0,1555,1771,5873,4,4,4,4,4,4,4,4,4,4,4,4,4,4,4,4
"271",4116,261.505263157895,4115,203.042105263158,123.957894736842,3811,-251.536842105263,3755,4220,-235.010526315789,-108.863157894737,3891,3798,-253.989473684211,98,0,1555,1775,6523,4,4,4,4,4,4,4,4,4,4,4,4,4,4,4,4
"272",4107,304.473684210526,4139,214.221052631579,122.936842105263,4546,-259.221052631579,4512,4222,-172.042105263158,-107.831578947368,4642,3801,-230.505263157895,99,0,1559,1771,6108,4,4,4,4,4,4,4,4,4,4,4,4,4,4,4,4
"273",4114,-52.5578947368421,4160,-128.452631578947,130.115789473684,4781,-257.684210526316,4841,4226,125.389473684211,-107.831578947368,4943,3801,43.3368421052632,100,0,1555,1771,6185,4,4,4,4,4,4,4,4,4,4,4,4,4,4,4,4
"274",4120,-87.4315789473684,4152,-135.631578947368,127.547368421053,4656,-256.663157894737,4773,4217,4.87368421052632,-112.957894736842,4815,3799,-81.7894736842105,101,0,1555,1775,5873,4,4,4,4,4,4,4,4,4,4,4,4,4,4,4,4
"275",4122,-339.221052631579,4146,297.294736842105,126.526315789474,4410,-259.736842105263,4513,4208,-246.915789473684,-114.505263157895,4552,3805,338.315789473684,102,0,1555,1771,6523,4,4,4,4,4,4,4,4,4,4,4,4,4,4,4,4
"276",4129,68.0631578947368,4151,-8.34736842105263,131.652631578947,4261,-256.147368421053,4270,4210,312.168421052632,-119.631578947368,4433,3806,223.452631578947,103,0,1555,1771,6108,4,4,4,4,4,4,4,4,4,4,4,4,4,4,4,4
"277",4142,197.4,4148,143.557894736842,138.315789473684,3737,-244.357894736842,3717,4214,-212.452631578947,-119.115789473684,3919,3808,-255.010526315789,104,0,1555,1771,6185,4,4,4,4,4,4,4,4,4,4,4,4,4,4,4,4
"278",4148,-241.063157894737,4124,-271.831578947368,141.4,3186,-240.252631578947,3237,4218,-116.957894736842,-108.347368421053,3311,3814,-152.336842105263,105,0,1559,1771,5873,4,4,4,4,4,4,4,4,4,4,4,4,4,4,4,4
"279",4143,-229.263157894737,4115,-279.010526315789,140.368421052632,3190,-245.378947368421,3252,4216,-130.8,-102.189473684211,3290,3816,-183.621052631579,106,0,1555,1767,6523,4,4,4,4,4,4,4,4,4,4,4,4,4,4,4,4
"280",4135,-164.136842105263,4123,-236.442105263158,138.831578947368,3367,-246.915789473684,3349,4214,55.3473684210526,-107.831578947368,3483,3810,12.7894736842105,107,0,1559,1771,6108,4,4,4,4,4,4,4,4,4,4,4,4,4,4,4,4
"281",4133,100.484210526316,4129,49.2,136.778947368421,3584,-244.357894736842,3592,4216,267.147368421053,-112.452631578947,3704,3807,251.252631578947,108,0,1563,1767,6185,4,4,4,4,4,4,4,4,4,4,4,4,4,4,4,4
"282",4136,-231.421052631579,4137,-296.547368421053,137.294736842105,3891,-244.863157894737,3937,4220,-157.063157894737,-104.757894736842,3971,3810,-167.315789473684,109,0,1555,1771,5873,4,4,4,4,4,4,4,4,4,4,4,4,4,4,4,4
"283",4130,-186.915789473684,4168,-283.842105263158,136.778947368421,4675,-245.894736842105,4699,4218,-57.6842105263158,-104.242105263158,4761,3811,-104.863157894737,110,0,1559,1771,6523,4,4,4,4,4,4,4,4,4,4,4,4,4,4,4,4
"284",4127,58.7263157894737,4188,-20.2526315789474,135.242105263158,4927,-244.863157894737,4950,4223,252.052631578947,-104.757894736842,5073,3810,183.336842105263,111,0,1563,1767,6108,4,4,4,4,4,4,4,4,4,4,4,4,4,4,4,4
"285",4135,1.28421052631579,4183,-39.7368421052632,135.242105263158,4764,-244.357894736842,4860,4227,112.052631578947,-101.168421052632,4922,3811,23.8526315789474,112,0,1559,1771,6185,4,4,4,4,4,4,4,4,4,4,4,4,4,4,4,4
"286",4141,-253.073684210526,4169,-293.578947368421,140.368421052632,4481,-244.863157894737,4599,4227,-168.452631578947,-98.0947368421053,4626,3815,-285.894736842105,113,0,1555,1771,5873,4,4,4,4,4,4,4,4,4,4,4,4,4,4,4,4
"287",4130,121.4,4153,49.0842105263158,139.863157894737,4323,-243.842105263158,4328,4226,-313.578947368421,-100.136842105263,4498,3812,288.063157894737,114,0,1559,1771,6523,4,4,4,4,4,4,4,4,4,4,4,4,4,4,4,4
"288",4123,203.042105263158,4130,147.147368421053,135.242105263158,3752,-245.378947368421,3726,4224,-199.115789473684,-100.136842105263,3938,3808,-235.010526315789,115,0,1555,1767,6108,4,4,4,4,4,4,4,4,4,4,4,4,4,4,4,4
"289",4130,-307.726315789474,4102,-337.463157894737,135.757894736842,3118,-246.4,3168,4216,-190.284210526316,-102.705263157895,3236,3809,-233.368421052632,116,0,1555,1771,6185,4,4,4,4,4,4,4,4,4,4,4,4,4,4,4,4
"290",4133,-280.031578947368,4096,-326.18947368421,139.863157894737,3147,-245.894736842105,3195,4215,-172.852631578947,-106.294736842105,3249,3812,-224.136842105263,117,0,1559,1763,5873,4,4,4,4,4,4,4,4,4,4,4,4,4,4,4,4
"291",4127,-131.315789473684,4104,-211.315789473684,134.221052631579,3409,-251.021052631579,3379,4216,101.505263157895,-106.294736842105,3545,3809,87.1473684210526,118,0,1555,1771,6523,4,4,4,4,4,4,4,4,4,4,4,4,4,4,4,4
"292",4126,154.842105263158,4112,84.0736842105263,127.547368421053,3632,-255.126315789474,3650,4208,323.042105263158,-112.957894736842,3767,3803,320.989473684211,119,0,1559,1771,6108,4,4,4,4,4,4,4,4,4,4,4,4,4,4,4,4
"293",4134,-258.6,4124,-333.473684210526,130.115789473684,3838,-256.147368421053,3914,4206,-186.810526315789,-118.094736842105,3935,3803,-210.915789473684,120,0,1555,1771,6185,4,4,4,4,4,4,4,4,4,4,4,4,4,4,4,4
"294",4132,-228.968421052632,4156,-316.147368421053,130.115789473684,4615,-256.663157894737,4653,4206,-91.0210526315789,-119.115789473684,4726,3802,-143.326315789474,121,0,1555,1771,5873,4,4,4,4,4,4,4,4,4,4,4,4,4,4,4,4
"295",4125,46.4210526315789,4178,-29.9894736842105,123.957894736842,4918,-259.221052631579,4934,4211,243.336842105263,-115.010526315789,5064,3800,176.673684210526,122,0,1551,1775,6523,4,4,4,4,4,4,4,4,4,4,4,4,4,4,4,4
"296",4121,-107.947368421053,4170,-175.631578947368,122.421052631579,4643,-256.147368421053,4747,4212,-19.2210526315789,-114.505263157895,4777,3798,-139.221052631579,123,0,1555,1775,6108,4,4,4,4,4,4,4,4,4,4,4,4,4,4,4,4
"297",4127,223.957894736842,4155,157.810526315789,128.063157894737,4235,-253.578947368421,4378,4211,274.726315789474,-112.957894736842,4370,3804,137.294736842105,124,0,1555,1771,6185,4,4,4,4,4,4,4,4,4,4,4,4,4,4,4,4
"298",4134,-22.7052631578947,4148,-103.726315789474,128.578947368421,4175,-254.094736842105,4175,4213,203.957894736842,-112.957894736842,4333,3804,160.368421052632,125,0,1555,1779,5873,4,4,4,4,4,4,4,4,4,4,4,4,4,4,4,4
"299",4129,121.505263157895,4131,58.9368421052632,127.547368421053,3699,-252.042105263158,3639,4218,-300.136842105263,-108.347368421053,3844,3805,-284.757894736842,126,0,1559,1771,6523,4,4,4,4,4,4,4,4,4,4,4,4,4,4,4,4
"300",4119,226.231578947368,4089,199.568421052632,129.084210526316,2970,-252.042105263158,3005,4217,320.589473684211,-100.652631578947,3054,3808,285.715789473684,127,0,1555,1775,6108,4,4,4,4,4,4,4,4,4,4,4,4,4,4,4,4
"301",4117,284.694736842105,4074,260.073684210526,129.084210526316,3005,-254.610526315789,3063,4217,-306.694736842105,-107.315789473684,3112,3809,335.978947368421,128,0,1555,1775,6185,4,4,4,4,4,4,4,4,4,4,4,4,4,4,4,4
"302",4123,-112.336842105263,4098,-179.010526315789,126.010526315789,3447,-257.168421052632,3415,4217,164.073684210526,-119.115789473684,3612,3806,167.147368421053,0,0,1559,1771,572,4,4,4,4,4,4,4,4,4,4,4,4,4,4,4,4
"303",4126,242.536842105263,4121,169.715789473684,126.010526315789,3726,-259.221052631579,3753,4204,-253.473684210526,-120.136842105263,3870,3804,-272.957894736842,1,0,1559,1767,406,4,4,4,4,4,4,4,4,4,4,4,4,4,4,4,4
"304",4131,-186.294736842105,4123,-266.294736842105,133.705263157895,3852,-262.305263157895,3965,4200,-157.578947368421,-112.957894736842,3933,3808,-224.757894736842,2,0,1559,1771,493,4,4,4,4,4,4,4,4,4,4,4,4,4,4,4,4
"305",4130,-143.842105263158,4146,-244.863157894737,134.726315789474,4688,-260.768421052632,4730,4211,-19.7368421052632,-116.547368421053,4778,3807,-92.0421052631579,3,0,1555,1767,464,4,4,4,4,4,4,4,4,4,4,4,4,4,4,4,4
"306",4128,114.105263157895,4171,15.6421052631579,128.063157894737,5042,-262.810526315789,5024,4219,-337.8,-116.042105263158,5179,3804,291.031578947368,4,0,1555,1771,501,4,4,4,4,4,4,4,4,4,4,4,4,4,4,4,4
"307",4123,-171.536842105263,4158,-272.042105263158,123.957894736842,4587,-267.431578947368,4685,4215,-75.1263157894737,-113.473684210526,4724,3803,-195.126315789474,5,0,1559,1771,514,4,4,4,4,4,4,4,4,4,4,4,4,4,4,4,4
"308",4120,20.3684210526316,4134,-72.4526315789474,127.042105263158,3978,-267.947368421053,4150,4215,33.7052631578947,-115.526315789474,4121,3804,-121.168421052632,6,0,1555,1771,505,4,4,4,4,4,4,4,4,4,4,4,4,4,4,4,4
"309",4123,-235.526315789474,4130,-303.221052631579,126.526315789474,3931,-264.863157894737,3956,4216,-26.2947368421053,-116.042105263158,4099,3799,-69.3684210526316,7,0,1555,1767,6297,4,4,4,4,4,4,4,4,4,4,4,4,4,4,4,4
"310",4131,19.4526315789474,4124,-10.8,124.473684210526,3568,-264.357894736842,3545,4214,298.431578947368,-115.010526315789,3748,3796,322.021052631579,8,0,1555,1771,6286,4,4,4,4,4,4,4,4,4,4,4,4,4,4,4,4
"311",4136,188.284210526316,4096,169.821052631579,124.989473684211,2885,-267.431578947368,2965,4213,281.105263157895,-121.168421052632,3000,3799,218.021052631579,9,0,1559,1771,6378,4,4,4,4,4,4,4,4,4,4,4,4,4,4,4,4
"312",4127,281.610526315789,4088,245.2,124.473684210526,2999,-268.452631578947,3055,4212,-338.494736842105,-122.189473684211,3073,3801,279.052631578947,10,0,1551,1767,6525,4,4,4,4,4,4,4,4,4,4,4,4,4,4,4,4
"313",4121,-60.0315789473684,4099,-137.463157894737,124.989473684211,3535,-265.378947368421,3464,4212,197.915789473684,-110.915789473684,3651,3801,220.989473684211,11,0,1555,1771,6090,4,4,4,4,4,4,4,4,4,4,4,4,4,4,4,4
"314",4121,-282.18947368421,4109,330.221052631579,126.010526315789,3899,-260.252631578947,3921,4215,-67.8315789473684,-106.810526315789,4056,3800,-107.315789473684,12,0,1559,1771,6170,4,4,4,4,4,4,4,4,4,4,4,4,4,4,4,4
"315",4122,-31.9368421052632,4114,-101.168421052632,129.6,3983,-260.252631578947,4124,4219,11.6526315789474,-108.863157894737,4101,3802,-132.957894736842,13,0,1555,1767,5838,4,4,4,4,4,4,4,4,4,4,4,4,4,4,4,4
"316",4121,-151.021052631579,4142,-229.989473684211,130.631578947368,4652,-260.768421052632,4714,4219,-30.5052631578947,-111.421052631579,4776,3802,-127.431578947368,14,0,1555,1771,6525,4,4,4,4,4,4,4,4,4,4,4,4,4,4,4,4
"317",4125,61.8,4166,-26.4,126.010526315789,4949,-260.252631578947,4962,4215,299.747368421053,-110.915789473684,5131,3801,257.18947368421,15,0,1559,1771,6090,4,4,4,4,4,4,4,4,4,4,4,4,4,4,4,4
"318",4129,-143.326315789474,4163,-256.147368421053,122.421052631579,4596,-261.273684210526,4731,4213,-35.1263157894737,-113.473684210526,4758,3799,-165.894736842105,16,0,1559,1767,0,4,4,4,4,4,4,4,4,4,4,4,4,4,4,4,4
"319",4131,-0.136842105263158,4147,-104.757894736842,127.547368421053,3978,-262.305263157895,4158,4215,28.0631578947368,-117.578947368421,4113,3800,-140.136842105263,17,0,1555,1775,0,4,4,4,4,4,4,4,4,4,4,4,4,4,4,4,4
"320",4135,316.894736842105,4131,242.536842105263,130.115789473684,3795,-262.305263157895,3813,4214,-190.915789473684,-121.684210526316,3937,3801,-231.421052631579,18,0,1563,1771,0,4,4,4,4,4,4,4,4,4,4,4,4,4,4,4,4
"321",4139,40.4842105263158,4126,-13.8736842105263,128.063157894737,3584,-258.2,3549,4213,279.452631578947,-116.547368421053,3731,3803,300.989473684211,19,0,1555,1771,0,4,4,4,4,4,4,4,4,4,4,4,4,4,4,4,4
"322",4138,-315.926315789474,4114,331.357894736842,126.526315789474,3087,-257.684210526316,3160,4213,-206.189473684211,-112.452631578947,3208,3802,-264.136842105263,20,0,1555,1771,0,4,4,4,4,4,4,4,4,4,4,4,4,4,4,4,4
"323",4132,-285.157894736842,4101,-315.926315789474,124.473684210526,3126,-259.221052631579,3193,4211,-162.084210526316,-118.094736842105,3258,3799,-214.389473684211,21,0,1559,1767,0,4,4,4,4,4,4,4,4,4,4,4,4,4,4,4,4
"324",4126,19.9684210526316,4096,-49.7789473684211,123.452631578947,3612,-259.736842105263,3547,4210,302.021052631579,-115.526315789474,3757,3798,342.021052631579,22,0,1559,1767,0,4,4,4,4,4,4,4,4,4,4,4,4,4,4,4,4
"325",4112,-74.5052631578947,4111,-163.221052631579,124.473684210526,4132,-260.252631578947,4135,4207,146.526315789474,-115.010526315789,4273,3797,115.757894736842,23,0,1555,1767,0,4,4,4,4,4,4,4,4,4,4,4,4,4,4,4,4
"326",4106,156.273684210526,4116,85.4947368421053,122.421052631579,4187,-262.305263157895,4328,4201,218.315789473684,-117.578947368421,4310,3796,63.9578947368421,24,0,1559,1771,0,4,4,4,4,4,4,4,4,4,4,4,4,4,4,4,4
"327",4113,-183.842105263158,4125,-255.126315789474,120.368421052632,4588,-261.273684210526,4678,4201,-76.1473684210526,-112.452631578947,4723,3798,-198.2,25,0,1555,1767,0,4,4,4,4,4,4,4,4,4,4,4,4,4,4,4,4
"328",4124,-60.2526315789474,4146,-147.947368421053,128.578947368421,4810,-258.715789473684,4836,4210,156.157894736842,-103.726315789474,4979,3804,102.831578947368,26,0,1555,1771,0,4,4,4,4,4,4,4,4,4,4,4,4,4,4,4,4
"329",4124,-285.378947368421,4149,289.084210526316,131.652631578947,4504,-259.736842105263,4630,4208,-142.810526315789,-108.347368421053,4649,3804,-269.989473684211,27,0,1555,1767,0,4,4,4,4,4,4,4,4,4,4,4,4,4,4,4,4
"330",4123,-180.136842105263,4126,-277.578947368421,126.010526315789,3843,-260.768421052632,4024,4207,-109.368421052632,-108.347368421053,3971,3803,-284.242105263158,28,0,1551,1771,0,4,4,4,4,4,4,4,4,4,4,4,4,4,4,4,4
"331",4122,145.610526315789,4102,82.0210526315789,122.936842105263,3608,-259.736842105263,3637,4210,311.252631578947,-106.294736842105,3741,3799,257.4,29,0,1555,1771,0,4,4,4,4,4,4,4,4,4,4,4,4,4,4,4,4
"332",4124,-94.9052631578947,4096,-141.568421052632,125.494736842105,3433,-260.252631578947,3396,4209,119.452631578947,-112.957894736842,3566,3794,133.810526315789,30,0,1555,1771,0,4,4,4,4,4,4,4,4,4,4,4,4,4,4,4,4
"333",4133,250.336842105263,4092,211.357894736842,123.957894736842,2972,-260.252631578947,3040,4206,-324.652631578947,-117.063157894737,3086,3796,298.536842105263,31,0,1551,1767,0,4,4,4,4,4,4,4,4,4,4,4,4,4,4,4,4
"334",4137,-318.494736842105,4091,336.484210526316,124.473684210526,3091,-255.631578947368,3161,4209,-201.063157894737,-114.505263157895,3214,3801,-264.136842105263,32,0,1551,1775,0,4,4,4,4,4,4,4,4,4,4,4,4,4,4,4,4
"335",4136,78.4315789473684,4104,3.55789473684211,131.136842105263,3672,-248.452631578947,3603,4215,-334.505263157895,-110.915789473684,3811,3802,-291.936842105263,33,0,1555,1775,0,4,4,4,4,4,4,4,4,4,4,4,4,4,4,4,4
"336",4134,-87.8315789473684,4127,-170.4,131.136842105263,4125,-246.4,4127,4211,144.989473684211,-115.010526315789,4274,3801,117.810526315789,34,0,1551,1767,0,4,4,4,4,4,4,4,4,4,4,4,4,4,4,4,4
"337",4131,104.989473684211,4130,45.4947368421053,126.010526315789,4129,-255.126315789474,4280,4206,174.726315789474,-119.115789473684,4265,3803,13.7052631578947,35,0,1551,1775,0,4,4,4,4,4,4,4,4,4,4,4,4,4,4,4,4
"338",4125,-189.989473684211,4136,-262.305263157895,123.452631578947,4586,-260.252631578947,4675,4204,-81.2736842105263,-117.578947368421,4715,3803,-204.357894736842,36,0,1555,1771,0,4,4,4,4,4,4,4,4,4,4,4,4,4,4,4,4
"339",4124,-38.2,4152,-136.663157894737,125.494736842105,4847,-258.715789473684,4856,4209,171.547368421053,-110.915789473684,4994,3802,124.368421052632,37,0,1551,1771,0,4,4,4,4,4,4,4,4,4,4,4,4,4,4,4,4
"340",4123,-238.715789473684,4150,329.084210526316,127.042105263158,4545,-254.610526315789,4666,4210,-115.631578947368,-113.473684210526,4676,3802,-240.252631578947,38,0,1551,1771,0,4,4,4,4,4,4,4,4,4,4,4,4,4,4,4,4
"341",4127,-85.2736842105263,4130,-187.315789473684,127.547368421053,3925,-255.126315789474,4114,4210,-23.2210526315789,-112.452631578947,4056,3804,-196.547368421053,39,0,1551,1771,0,4,4,4,4,4,4,4,4,4,4,4,4,4,4,4,4
"342",4129,226.126315789474,4110,158.936842105263,128.063157894737,3691,-255.126315789474,3723,4210,-281.684210526316,-107.315789473684,3839,3804,-327.831578947368,40,0,1555,1767,0,4,4,4,4,4,4,4,4,4,4,4,4,4,4,4,4
"343",4128,-52.8526315789474,4103,-99.5157894736842,126.526315789474,3481,-253.073684210526,3444,4208,182.536842105263,-108.347368421053,3632,3805,203.557894736842,41,0,1551,1771,0,4,4,4,4,4,4,4,4,4,4,4,4,4,4,4,4
"344",4132,300.073684210526,4093,259.568421052632,126.526315789474,3023,-251.021052631579,3091,4211,-264.136842105263,-112.957894736842,3148,3805,-327.210526315789,42,0,1555,1767,0,4,4,4,4,4,4,4,4,4,4,4,4,4,4,4,4
"345",4138,-317.978947368421,4090,335.978947368421,125.494736842105,3086,-249.484210526316,3164,4209,-196.957894736842,-115.526315789474,3222,3801,-254.389473684211,43,0,1555,1771,0,4,4,4,4,4,4,4,4,4,4,4,4,4,4,4,4
"346",4139,2.02105263157895,4099,-68.2421052631579,125.494736842105,3589,-252.557894736842,3528,4203,279.452631578947,-116.547368421053,3740,3799,324.578947368421,44,0,1547,1771,0,4,4,4,4,4,4,4,4,4,4,4,4,4,4,4,4
"347",4137,-95.5263157894737,4125,-183.221052631579,125.494736842105,4125,-251.536842105263,4116,4199,137.810526315789,-123.726315789474,4268,3801,113.705263157895,45,0,1555,1771,0,4,4,4,4,4,4,4,4,4,4,4,4,4,4,4,4
"348",4143,206.010526315789,4143,135.757894736842,124.989473684211,4245,-247.947368421053,4379,4208,277.810526315789,-121.168421052632,4365,3801,126.010526315789,46,0,1555,1767,0,4,4,4,4,4,4,4,4,4,4,4,4,4,4,4,4
"349",4143,-108.968421052632,4151,-180.252631578947,124.989473684211,4668,-247.431578947368,4756,4209,-1.78947368421053,-115.010526315789,4790,3799,-120.252631578947,47,0,1551,1775,0,4,4,4,4,4,4,4,4,4,4,4,4,4,4,4,4
"350",4137,-32.0421052631579,4159,-125.894736842105,124.473684210526,4851,-248.452631578947,4861,4208,177.189473684211,-112.957894736842,4997,3800,124.873684210526,48,0,1555,1771,0,4,4,4,4,4,4,4,4,4,4,4,4,4,4,4,4
"351",4133,-247.431578947368,4157,326.010526315789,123.957894736842,4548,-246.4,4658,4215,-110.505263157895,-110.915789473684,4682,3802,-234.094736842105,49,0,1551,1771,0,4,4,4,4,4,4,4,4,4,4,4,4,4,4,4,4
"352",4136,-119.631578947368,4134,-204.757894736842,128.063157894737,3893,-243.326315789474,4084,4222,-45.7789473684211,-104.757894736842,4035,3807,-212.452631578947,50,0,1555,1771,0,4,4,4,4,4,4,4,4,4,4,4,4,4,4,4,4
"353",4134,156.894736842105,4103,105.094736842105,130.115789473684,3609,-245.378947368421,3653,4216,330.736842105263,-105.778947368421,3758,3808,279.452631578947,51,0,1555,1771,0,4,4,4,4,4,4,4,4,4,4,4,4,4,4,4,4
"354",4126,-79.0105263157895,4090,-126.189473684211,127.547368421053,3449,-245.378947368421,3416,4211,149.2,-109.368421052632,3596,3806,168.684210526316,52,0,1555,1771,0,4,4,4,4,4,4,4,4,4,4,4,4,4,4,4,4
"355",4131,330.842105263158,4081,286.747368421053,126.526315789474,3057,-245.378947368421,3128,4214,-220.547368421053,-108.347368421053,3195,3806,-276.957894736842,53,0,1555,1771,0,4,4,4,4,4,4,4,4,4,4,4,4,4,4,4,4
"356",4139,-246.189473684211,4079,-287.210526315789,128.063157894737,3167,-243.842105263158,3239,4211,-114.905263157895,-110.4,3302,3809,-176.957894736842,54,0,1555,1775,0,4,4,4,4,4,4,4,4,4,4,4,4,4,4,4,4
"357",4138,98.4315789473684,4096,23.0421052631579,127.042105263158,3701,-243.842105263158,3627,4213,-313.989473684211,-111.421052631579,3830,3808,-275.010526315789,55,0,1559,1767,0,4,4,4,4,4,4,4,4,4,4,4,4,4,4,4,4
"358",4134,-45.2736842105263,4124,-123.221052631579,125.494736842105,4181,-244.863157894737,4174,4215,193.705263157895,-109.884210526316,4321,3803,170.631578947368,56,0,1555,1775,0,4,4,4,4,4,4,4,4,4,4,4,4,4,4,4,4
"359",4144,223.957894736842,4142,164.989473684211,128.578947368421,4250,-242.810526315789,4393,4217,296.273684210526,-107.315789473684,4385,3806,140.368421052632,57,0,1559,1771,0,4,4,4,4,4,4,4,4,4,4,4,4,4,4,4,4
"360",4155,-42.3052631578947,4161,-115.126315789474,128.578947368421,4744,-240.252631578947,4820,4216,62.3157894736842,-109.368421052632,4859,3809,-54.6105263157895,58,0,1555,1771,0,4,4,4,4,4,4,4,4,4,4,4,4,4,4,4,4
"361",4157,86.9263157894737,4174,-12.5578947368421,129.6,4992,-240.252631578947,4981,4218,291.547368421053,-109.368421052632,5118,3804,254.105263157895,59,0,1555,1771,0,4,4,4,4,4,4,4,4,4,4,4,4,4,4,4,4
"362",4153,-105.378947368421,4169,-235.631578947368,133.705263157895,4670,-240.768421052632,4769,4218,-6.4,-110.915789473684,4788,3801,-125.378947368421,60,0,1555,1775,0,4,4,4,4,4,4,4,4,4,4,4,4,4,4,4,4
"363",4154,35.7578947368421,4152,-64.7578947368421,135.757894736842,4024,-242.305263157895,4201,4216,71.6526315789474,-108.863157894737,4153,3810,-93.9894736842105,61,0,1563,1771,0,4,4,4,4,4,4,4,4,4,4,4,4,4,4,4,4
"364",4153,262.021052631579,4126,211.252631578947,131.136842105263,3722,-241.273684210526,3763,4215,-240.652631578947,-102.705263157895,3881,3809,-279.115789473684,62,0,1555,1771,0,4,4,4,4,4,4,4,4,4,4,4,4,4,4,4,4
"365",4145,-6.18947368421053,4109,-51.8315789473684,127.547368421053,3532,-235.126315789474,3506,4216,249.715789473684,-96.0421052631579,3697,3805,272.273684210526,63,0,1559,1775,0,4,4,4,4,4,4,4,4,4,4,4,4,4,4,4,4
"366",4142,-259.515789473684,4098,-313.873684210526,128.063157894737,3158,-235.126315789474,3228,4216,-119.010526315789,-96.0421052631579,3293,3809,-176.442105263158,64,0,1559,1771,572,4,4,4,4,4,4,4,4,4,4,4,4,4,4,4,4
"367",4140,-203.621052631579,4088,-243.621052631579,129.6,3207,-242.810526315789,3283,4216,-70.8,-103.221052631579,3346,3810,-129.263157894737,65,0,1555,1775,406,4,4,4,4,4,4,4,4,4,4,4,4,4,4,4,4
"368",4137,70.2210526315789,4095,-0.0315789473684211,128.063157894737,3664,-243.326315789474,3598,4221,-336.547368421053,-102.705263157895,3807,3808,-303.726315789474,66,0,1559,1771,493,4,4,4,4,4,4,4,4,4,4,4,4,4,4,4,4
"369",4137,13.1894736842105,4123,-79.6315789473684,130.631578947368,4248,-237.168421052632,4226,4220,248.063157894737,-101.684210526316,4379,3808,225.494736842105,67,0,1555,1771,464,4,4,4,4,4,4,4,4,4,4,4,4,4,4,4,4
"370",4149,332.684210526316,4139,260.368421052632,137.294736842105,4381,-236.147368421053,4506,4219,-286.4,-104.757894736842,4501,3811,266.010526315789,68,0,1559,1771,501,4,4,4,4,4,4,4,4,4,4,4,4,4,4,4,4
"371",4156,-31.5368421052632,4152,-105.894736842105,133.705263157895,4742,-233.578947368421,4823,4221,58.7263157894737,-113.989473684211,4857,3812,-52.0421052631579,69,0,1555,1775,514,4,4,4,4,4,4,4,4,4,4,4,4,4,4,4,4
"372",4156,5.38947368421053,4168,-94.0947368421053,130.631578947368,4888,-234.094736842105,4887,4217,194.105263157895,-112.957894736842,5012,3814,149.494736842105,70,0,1559,1771,505,4,4,4,4,4,4,4,4,4,4,4,4,4,4,4,4
"373",4153,-197.168421052632,4169,-315.126315789474,132.168421052632,4597,-237.684210526316,4708,4211,-63.3263157894737,-108.863157894737,4731,3811,-175.631578947368,71,0,1555,1775,6276,4,4,4,4,4,4,4,4,4,4,4,4,4,4,4,4
"374",4160,-95.5263157894737,4150,-175.526315789474,131.136842105263,3907,-237.168421052632,4103,4209,-20.1368421052632,-110.4,4063,3807,-185.778947368421,72,0,1559,1779,6280,4,4,4,4,4,4,4,4,4,4,4,4,4,4,4,4
"375",4164,91.7578947368421,4119,51.2526315789474,127.042105263158,3518,-238.2,3578,4204,248.684210526316,-116.547368421053,3666,3804,183.557894736842,73,0,1559,1771,6394,4,4,4,4,4,4,4,4,4,4,4,4,4,4,4,4
"376",4157,-90.8,4109,-139.010526315789,129.084210526316,3415,-242.305263157895,3399,4202,107.147368421053,-117.063157894737,3545,3805,107.147368421053,74,0,1555,1775,6484,4,4,4,4,4,4,4,4,4,4,4,4,4,4,4,4
"377",4153,-230.284210526316,4108,-297.978947368421,129.6,3214,-241.273684210526,3264,4211,-90.2842105263158,-109.368421052632,3326,3808,-149.263157894737,75,0,1559,1775,6020,4,4,4,4,4,4,4,4,4,4,4,4,4,4,4,4
"378",4146,-121.063157894737,4101,-176.957894736842,125.494736842105,3332,-238.2,3368,4215,36.3789473684211,-105.778947368421,3455,3803,-15.9263157894737,76,0,1559,1771,6108,4,4,4,4,4,4,4,4,4,4,4,4,4,4,4,4
"379",4138,154.842105263158,4097,77.9157894736842,123.957894736842,3748,-241.273684210526,3664,4213,-262.18947368421,-106.810526315789,3883,3799,-230.4,77,0,1555,1771,5756,4,4,4,4,4,4,4,4,4,4,4,4,4,4,4,4
"380",4134,171.652631578947,4125,74.7263157894737,123.957894736842,4417,-241.273684210526,4385,4216,-260.768421052632,-111.936842105263,4571,3801,-276.663157894737,78,0,1555,1775,6484,4,4,4,4,4,4,4,4,4,4,4,4,4,4,4,4
"381",4136,-242.305263157895,4142,-326.4,127.042105263158,4558,-237.168421052632,4645,4220,-88.9684210526316,-104.757894736842,4711,3808,-194.610526315789,79,0,1555,1771,6020,4,4,4,4,4,4,4,4,4,4,4,4,4,4,4,4
"382",4131,-143.842105263158,4134,-219.221052631579,124.989473684211,4607,-238.715789473684,4719,4212,-54.0947368421053,-103.726315789474,4742,3805,-169.484210526316,80,0,1555,1775,6108,4,4,4,4,4,4,4,4,4,4,4,4,4,4,4,4
"383",4135,-267.431578947368,4130,-344.357894736842,122.936842105263,4519,-243.842105263158,4598,4207,-146.4,-111.421052631579,4658,3803,-248.968421052632,81,0,1555,1771,5756,4,4,4,4,4,4,4,4,4,4,4,4,4,4,4,4
"384",4147,216.778947368421,4136,120.884210526316,126.526315789474,4390,-240.768421052632,4418,4210,-274.094736842105,-112.452631578947,4522,3802,315.242105263158,82,0,1555,1771,6484,4,4,4,4,4,4,4,4,4,4,4,4,4,4,4,4
"385",4149,329.2,4125,258.936842105263,131.136842105263,3799,-234.610526315789,3832,4212,-167.831578947368,-106.810526315789,3933,3806,-246.294736842105,83,0,1555,1775,6020,4,4,4,4,4,4,4,4,4,4,4,4,4,4,4,4
"386",4147,-191.831578947368,4095,-221.568421052632,130.631578947368,3220,-236.147368421053,3282,4206,-65.1578947368421,-114.505263157895,3351,3806,-118.494736842105,84,0,1559,1775,6108,4,4,4,4,4,4,4,4,4,4,4,4,4,4,4,4
"387",4159,-194.905263157895,4099,-238.494736842105,133.189473684211,3253,-235.126315789474,3297,4202,-33.3684210526316,-124.757894736842,3388,3806,-78.4947368421053,85,0,1559,1771,5756,4,4,4,4,4,4,4,4,4,4,4,4,4,4,4,4
"388",4171,-86.1894736842105,4125,-161.568421052632,136.273684210526,3438,-227.947368421053,3432,4213,150.736842105263,-119.115789473684,3577,3809,116.378947368421,86,0,1555,1779,6484,4,4,4,4,4,4,4,4,4,4,4,4,4,4,4,4
"389",4161,162.536842105263,4130,107.147368421053,132.684210526316,3634,-227.431578947368,3653,4218,327.663157894737,-112.452631578947,3757,3808,303.042105263158,87,0,1559,1775,6020,4,4,4,4,4,4,4,4,4,4,4,4,4,4,4,4
"390",4147,-273.473684210526,4121,340.484210526316,127.547368421053,3878,-235.126315789474,3899,4217,-168.347368421053,-107.831578947368,3949,3804,-193.989473684211,88,0,1555,1775,6108,4,4,4,4,4,4,4,4,4,4,4,4,4,4,4,4
"391",4135,-272.557894736842,4133,313.705263157895,126.526315789474,4606,-240.252631578947,4616,4214,-116.147368421053,-108.347368421053,4691,3802,-173.578947368421,89,0,1559,1775,5756,4,4,4,4,4,4,4,4,4,4,4,4,4,4,4,4
"392",4127,-23.3263157894737,4146,-98.7157894736842,126.526315789474,4837,-241.273684210526,4867,4215,174.105263157895,-103.726315789474,4990,3805,99.7473684210526,90,0,1555,1775,6484,4,4,4,4,4,4,4,4,4,4,4,4,4,4,4,4
"393",4119,-114.094736842105,4136,-191.536842105263,125.494736842105,4637,-236.147368421053,4739,4215,-20.7684210526316,-99.1157894736842,4776,3803,-136.147368421053,91,0,1559,1775,6020,4,4,4,4,4,4,4,4,4,4,4,4,4,4,4,4
"394",4122,216.778947368421,4120,121.4,128.578947368421,4230,-233.578947368421,4372,4218,270.631578947368,-96.5473684210526,4362,3806,130.115789473684,92,0,1559,1775,6108,4,4,4,4,4,4,4,4,4,4,4,4,4,4,4,4
"395",4132,-75.0105263157895,4114,-157.063157894737,129.084210526316,4111,-237.168421052632,4128,4215,161.905263157895,-103.726315789474,4290,3806,118.831578947368,93,0,1559,1775,5756,4,4,4,4,4,4,4,4,4,4,4,4,4,4,4,4
"396",4139,82.5368421052632,4103,42.0210526315789,127.042105263158,3641,-235.126315789474,3603,4206,-315.010526315789,-109.884210526316,3832,3803,-286.810526315789,94,0,1563,1771,6484,4,4,4,4,4,4,4,4,4,4,4,4,4,4,4,4
"397",4138,218.536842105263,4068,199.568421052632,123.452631578947,2928,-236.147368421053,2997,4201,329.305263157895,-110.4,3052,3799,274.431578947368,95,0,1555,1775,6020,4,4,4,4,4,4,4,4,4,4,4,4,4,4,4,4
"398",4136,290.336842105263,4055,257,126.010526315789,2996,-239.736842105263,3068,4202,-317.978947368421,-112.452631578947,3085,3798,294.947368421053,96,0,1563,1775,6108,4,4,4,4,4,4,4,4,4,4,4,4,4,4,4,4
"399",4144,-70.2842105263158,4079,-155.421052631579,126.010526315789,3528,-238.715789473684,3458,4201,192.273684210526,-114.505263157895,3634,3798,208.168421052632,97,0,1559,1771,5756,4,4,4,4,4,4,4,4,4,4,4,4,4,4,4,4
"400",4152,-245.273684210526,4115,-328.347368421053,124.989473684211,3947,-231.536842105263,3958,4199,-31.9368421052632,-118.094736842105,4090,3798,-74.5052631578947,98,0,1559,1771,6484,4,4,4,4,4,4,4,4,4,4,4,4,4,4,4,4
"401",4159,79.3473684210526,4142,15.2421052631579,132.684210526316,4086,-227.947368421053,4230,4208,127.042105263158,-112.957894736842,4216,3807,-30.4,99,0,1555,1775,6020,4,4,4,4,4,4,4,4,4,4,4,4,4,4,4,4
"402",4156,-47.9473684210526,4164,-119.736842105263,134.221052631579,4742,-226.915789473684,4815,4212,77.1894736842105,-109.368421052632,4880,3809,-37.6842105263158,100,0,1563,1771,6108,4,4,4,4,4,4,4,4,4,4,4,4,4,4,4,4
"403",4155,71.0315789473684,4172,-20.2526315789474,133.189473684211,4960,-228.968421052632,4975,4213,308.978947368421,-110.4,5141,3805,268.463157894737,101,0,1555,1771,5756,4,4,4,4,4,4,4,4,4,4,4,4,4,4,4,4
"404",4163,-109.484210526316,4170,-240.252631578947,134.221052631579,4641,-228.452631578947,4758,4213,-7.43157894736842,-117.578947368421,4790,3801,-123.842105263158,102,0,1559,1775,6484,4,4,4,4,4,4,4,4,4,4,4,4,4,4,4,4
"405",4159,13.1894736842105,4149,-97.5789473684211,129.084210526316,3981,-229.484210526316,4158,4213,22.9368421052632,-116.547368421053,4103,3804,-142.705263157895,103,0,1559,1771,6020,4,4,4,4,4,4,4,4,4,4,4,4,4,4,4,4
"406",4137,168.684210526316,4102,107.147368421053,120.368421052632,3613,-236.663157894737,3656,4213,336.378947368421,-111.936842105263,3760,3798,286.631578947368,104,0,1555,1775,6108,4,4,4,4,4,4,4,4,4,4,4,4,4,4,4,4
"407",4129,-110.284210526316,4079,-156.957894736842,122.936842105263,3416,-235.631578947368,3394,4212,132.273684210526,-111.421052631579,3578,3792,146.126315789474,105,0,1559,1771,5756,4,4,4,4,4,4,4,4,4,4,4,4,4,4,4,4
"408",4140,-292.852631578947,4078,341.610526315789,127.042105263158,3132,-233.578947368421,3192,4213,-153.368421052632,-108.863157894737,3262,3796,-216.957894736842,106,0,1559,1771,6484,4,4,4,4,4,4,4,4,4,4,4,4,4,4,4,4
"409",4139,-190.284210526316,4075,-242.6,124.473684210526,3245,-239.221052631579,3301,4208,-42.0842105263158,-109.884210526316,3374,3799,-105.673684210526,107,0,1559,1771,6020,4,4,4,4,4,4,4,4,4,4,4,4,4,4,4,4
"410",4135,71.2526315789474,4078,-14.3894736842105,123.452631578947,3674,-242.305263157895,3594,4200,343.557894736842,-113.473684210526,3794,3798,-314.505263157895,108,0,1559,1775,6108,4,4,4,4,4,4,4,4,4,4,4,4,4,4,4,4
"411",4143,108.063157894737,4114,6.52631578947368,124.473684210526,4358,-237.168421052632,4322,4197,-326.4,-119.631578947368,4500,3796,-341.789473684211,109,0,1563,1767,5756,4,4,4,4,4,4,4,4,4,4,4,4,4,4,4,4
"412",4155,-298.715789473684,4142,311.652631578947,128.578947368421,4493,-235.126315789474,4586,4201,-137.684210526316,-119.631578947368,4666,3797,-249.484210526316,110,0,1555,1771,6484,4,4,4,4,4,4,4,4,4,4,4,4,4,4,4,4
"413",4157,-127.431578947368,4149,-201.273684210526,128.578947368421,4614,-234.094736842105,4735,4192,-46.4,-119.631578947368,4752,3800,-163.326315789474,111,0,1559,1775,6020,4,4,4,4,4,4,4,4,4,4,4,4,4,4,4,4
"414",4158,-246.915789473684,4154,-314.610526315789,127.042105263158,4530,-233.073684210526,4618,4190,-133.073684210526,-119.115789473684,4668,3803,-234.610526315789,112,0,1563,1767,6108,4,4,4,4,4,4,4,4,4,4,4,4,4,4,4,4
"415",4155,103.452631578947,4146,28.0631578947368,124.989473684211,4295,-239.221052631579,4312,4200,-322.305263157895,-125.273684210526,4486,3796,278.315789473684,113,0,1559,1775,5756,4,4,4,4,4,4,4,4,4,4,4,4,4,4,4,4
"416",4151,150.221052631579,4117,84.0736842105263,122.936842105263,3675,-242.810526315789,3668,4203,-260.136842105263,-128.347368421053,3863,3793,-315.010526315789,114,0,1559,1775,6484,4,4,4,4,4,4,4,4,4,4,4,4,4,4,4,4
"417",4150,-277.978947368421,4087,-321.568421052632,124.473684210526,3157,-241.273684210526,3200,4200,-153.368421052632,-119.631578947368,3265,3799,-197.978947368421,115,0,1559,1771,6020,4,4,4,4,4,4,4,4,4,4,4,4,4,4,4,4
"418",4150,-240.547368421053,4076,-283.621052631579,128.578947368421,3188,-241.273684210526,3237,4201,-130.284210526316,-113.989473684211,3290,3803,-173.368421052632,116,0,1563,1771,6108,4,4,4,4,4,4,4,4,4,4,4,4,4,4,4,4
"419",4147,-172.336842105263,4074,-248.747368421053,125.494736842105,3370,-242.305263157895,3339,4202,71.7578947368421,-119.115789473684,3514,3796,62.5368421052632,117,0,1563,1767,5756,4,4,4,4,4,4,4,4,4,4,4,4,4,4,4,4
"420",4138,115.863157894737,4081,40.4842105263158,121.4,3596,-241.789473684211,3617,4198,300.989473684211,-123.726315789474,3737,3790,287.663157894737,118,0,1559,1767,6484,4,4,4,4,4,4,4,4,4,4,4,4,4,4,4,4
"421",4140,-295.010526315789,4093,305.094736842105,125.494736842105,3797,-242.305263157895,3887,4201,-214.505263157895,-114.505263157895,3890,3797,-266.810526315789,119,0,1559,1771,6020,4,4,4,4,4,4,4,4,4,4,4,4,4,4,4,4
"422",4148,-245.894736842105,4124,333.705263157895,129.6,4610,-237.168421052632,4651,4202,-90.5052631578947,-112.452631578947,4715,3805,-163.842105263158,120,0,1555,1767,6108,4,4,4,4,4,4,4,4,4,4,4,4,4,4,4,4
"423",4154,46.4210526315789,4153,-59.7368421052632,129.084210526316,4940,-230.505263157895,4946,4202,272.568421052632,-116.042105263158,5099,3803,207.442105263158,121,0,1559,1771,5756,4,4,4,4,4,4,4,4,4,4,4,4,4,4,4,4
"424",4153,-117.168421052632,4154,-231.021052631579,126.526315789474,4627,-230.505263157895,4738,4198,-12.0421052631579,-117.578947368421,4792,3797,-121.789473684211,122,0,1559,1771,6484,4,4,4,4,4,4,4,4,4,4,4,4,4,4,4,4
"425",4154,52.6842105263158,4134,-51.4210526315789,127.042105263158,4018,-233.073684210526,4195,4197,82.4210526315789,-111.421052631579,4171,3803,-64.2421052631579,123,0,1555,1771,6020,4,4,4,4,4,4,4,4,4,4,4,4,4,4,4,4
"426",4150,-318.6,4110,286.631578947368,128.063157894737,3834,-232.042105263158,3864,4198,-148.863157894737,-108.863157894737,3966,3805,-207.831578947368,124,0,1559,1767,6108,4,4,4,4,4,4,4,4,4,4,4,4,4,4,4,4
"427",4141,-9.26315789473684,4091,-67.7263157894737,127.042105263158,3536,-234.094736842105,3503,4201,227.663157894737,-110.4,3670,3801,233.305263157895,125,0,1555,1775,5756,4,4,4,4,4,4,4,4,4,4,4,4,4,4,4,4
"428",4134,307.768421052632,4072,258.536842105263,124.989473684211,3018,-237.684210526316,3091,4201,-261.063157894737,-109.884210526316,3153,3801,-319.515789473684,126,0,1559,1771,6484,4,4,4,4,4,4,4,4,4,4,4,4,4,4,4,4
"429",4138,-274.905263157895,4069,-322.084210526316,124.473684210526,3120,-239.221052631579,3197,4199,-163.621052631579,-112.957894736842,3252,3802,-222.084210526316,127,0,1555,1771,6020,4,4,4,4,4,4,4,4,4,4,4,4,4,4,4,4
"430",4148,29.7157894736842,4081,-51.8315789473684,126.526315789474,3619,-240.768421052632,3558,4198,291.252631578947,-115.010526315789,3741,3799,318.936842105263,128,0,1555,1771,6108,4,4,4,4,4,4,4,4,4,4,4,4,4,4,4,4
"431",4153,12.1684210526316,4113,-89.8842105263158,128.063157894737,4256,-236.147368421053,4231,4202,263.452631578947,-110.915789473684,4393,3802,236.778947368421,0,0,1551,1771,572,4,4,4,4,4,4,4,4,4,4,4,4,4,4,4,4
"432",4153,307.547368421053,4133,216.273684210526,130.115789473684,4391,-230.505263157895,4488,4209,-256.663157894737,-101.684210526316,4534,3811,317.294736842105,1,0,1559,1771,406,4,4,4,4,4,4,4,4,4,4,4,4,4,4,4,4
"433",4145,-119.736842105263,4134,-192.042105263158,127.042105263158,4632,-230.505263157895,4742,4207,-16.6631578947368,-105.778947368421,4784,3806,-120.252631578947,2,0,1551,1767,494,4,4,4,4,4,4,4,4,4,4,4,4,4,4,4,4
"434",4139,-195.631578947368,4135,-256.663157894737,124.989473684211,4633,-232.557894736842,4689,4206,-17.1684210526316,-105.778947368421,4796,3801,-102.810526315789,3,0,1555,1775,464,4,4,4,4,4,4,4,4,4,4,4,4,4,4,4,4
"435",4136,214.221052631579,4128,115.242105263158,126.010526315789,4393,-237.168421052632,4425,4208,-281.789473684211,-104.757894736842,4509,3804,297.810526315789,4,0,1559,1767,501,4,4,4,4,4,4,4,4,4,4,4,4,4,4,4,4
"436",4139,273.810526315789,4101,181.505263157895,124.989473684211,3706,-244.863157894737,3774,4204,-277.063157894737,-113.473684210526,3813,3803,318.431578947368,5,0,1551,1771,515,4,4,4,4,4,4,4,4,4,4,4,4,4,4,4,4
"437",4145,-191.831578947368,4073,-235.926315789474,123.957894736842,3210,-242.810526315789,3278,4197,-75.9263157894737,-117.063157894737,3347,3797,-121.063157894737,6,0,1555,1771,505,4,4,4,4,4,4,4,4,4,4,4,4,4,4,4,4
"438",4149,-166.694736842105,4080,-211.315789473684,129.6,3295,-228.968421052632,3321,4204,7.66315789473684,-107.315789473684,3442,3808,-30.2842105263158,7,0,1555,1767,6332,4,4,4,4,4,4,4,4,4,4,4,4,4,4,4,4
"439",4150,-117.978947368421,4089,-192.852631578947,132.684210526316,3402,-227.431578947368,3401,4213,118.936842105263,-101.168421052632,3544,3816,78.4315789473684,8,0,1555,1771,6342,4,4,4,4,4,4,4,4,4,4,4,4,4,4,4,4
"440",4148,129.715789473684,4090,70.7368421052632,128.578947368421,3578,-230.505263157895,3625,4209,290.736842105263,-104.757894736842,3720,3812,264.073684210526,9,0,1551,1775,6454,4,4,4,4,4,4,4,4,4,4,4,4,4,4,4,4
"441",4148,-243.726315789474,4094,-325.273684210526,128.578947368421,3878,-231.021052631579,3928,4208,-157.578947368421,-102.705263157895,3966,3811,-184.757894736842,10,0,1559,1771,6544,4,4,4,4,4,4,4,4,4,4,4,4,4,4,4,4
"442",4146,-255.631578947368,4119,330.115789473684,130.115789473684,4603,-231.021052631579,4633,4206,-115.631578947368,-107.315789473684,4693,3809,-181.789473684211,11,0,1551,1771,6073,4,4,4,4,4,4,4,4,4,4,4,4,4,4,4,4
"443",4150,-81.7894736842105,4142,-156.663157894737,127.547368421053,4777,-233.073684210526,4815,4207,118.726315789474,-106.810526315789,4932,3809,39.7473684210526,12,0,1555,1775,6173,4,4,4,4,4,4,4,4,4,4,4,4,4,4,4,4
"444",4154,-152.042105263158,4147,-227.947368421053,125.494736842105,4598,-232.042105263158,4705,4212,-59.2210526315789,-100.652631578947,4742,3810,-172.557894736842,13,0,1555,1767,5809,4,4,4,4,4,4,4,4,4,4,4,4,4,4,4,4
"445",4154,253.705263157895,4139,164.989473684211,132.168421052632,4268,-229.484210526316,4409,4216,308.578947368421,-97.5789473684211,4405,3812,170.631578947368,14,0,1555,1771,6544,4,4,4,4,4,4,4,4,4,4,4,4,4,4,4,4
"446",4152,-38.6,4128,-124.757894736842,137.294736842105,4147,-229.484210526316,4161,4215,190.115789473684,-97.5789473684211,4311,3814,136.273684210526,15,0,1555,1771,6073,4,4,4,4,4,4,4,4,4,4,4,4,4,4,4,4
"447",4161,186.631578947368,4123,118.431578947368,137.294736842105,3753,-226.915789473684,3706,4217,-234.505263157895,-94.5052631578947,3904,3818,-220.652631578947,16,0,1555,1771,0,4,4,4,4,4,4,4,4,4,4,4,4,4,4,4,4
"448",4171,-211.831578947368,4108,-259.010526315789,137.810526315789,3223,-224.357894736842,3266,4222,-95.4210526315789,-94.5052631578947,3324,3817,-136.442105263158,17,0,1555,1771,0,4,4,4,4,4,4,4,4,4,4,4,4,4,4,4,4
"449",4170,-142.084210526316,4095,-174.389473684211,139.863157894737,3291,-225.894736842105,3340,4217,-8.24210526315789,-101.684210526316,3407,3815,-61.5684210526316,18,0,1555,1771,0,4,4,4,4,4,4,4,4,4,4,4,4,4,4,4,4
"450",4168,58.9368421052632,4100,-16.4421052631579,137.810526315789,3667,-227.947368421053,3598,4215,-320.652631578947,-104.242105263158,3814,3816,-305.778947368421,19,0,1563,1771,0,4,4,4,4,4,4,4,4,4,4,4,4,4,4,4,4
"451",4164,-207.831578947368,4121,-300.652631578947,138.315789473684,3979,-228.968421052632,4001,4215,5.49473684210526,-103.221052631579,4122,3818,-48.8631578947368,20,0,1555,1771,0,4,4,4,4,4,4,4,4,4,4,4,4,4,4,4,4
"452",4157,64.9894736842105,4133,-10.9157894736842,139.863157894737,4061,-229.484210526316,4217,4217,83.4526315789474,-100.652631578947,4163,3819,-80.1368421052632,21,0,1555,1775,0,4,4,4,4,4,4,4,4,4,4,4,4,4,4,4,4
"453",4147,-108.452631578947,4145,-186.915789473684,131.652631578947,4680,-227.431578947368,4756,4216,-1.78947368421053,-103.726315789474,4791,3813,-121.789473684211,22,0,1559,1771,0,4,4,4,4,4,4,4,4,4,4,4,4,4,4,4,4
"454",4146,54.6210526315789,4151,-39.2210526315789,127.547368421053,4955,-231.021052631579,4961,4215,303.336842105263,-105.273684210526,5134,3810,263.336842105263,23,0,1559,1771,0,4,4,4,4,4,4,4,4,4,4,4,4,4,4,4,4
"455",4151,-81.2736842105263,4143,-192.557894736842,129.6,4658,-239.736842105263,4782,4210,34.6210526315789,-103.726315789474,4842,3810,-71.0210526315789,24,0,1559,1771,0,4,4,4,4,4,4,4,4,4,4,4,4,4,4,4,4
"456",4154,147.042105263158,4129,56.2736842105263,131.136842105263,4109,-238.2,4287,4209,170.631578947368,-99.6315789473684,4255,3811,11.6526315789474,25,0,1559,1771,0,4,4,4,4,4,4,4,4,4,4,4,4,4,4,4,4
"457",4152,-228.863157894737,4114,-297.578947368421,129.084210526316,3945,-229.989473684211,3963,4210,-23.7263157894737,-101.168421052632,4088,3810,-75.5263157894737,26,0,1563,1771,0,4,4,4,4,4,4,4,4,4,4,4,4,4,4,4,4
"458",4154,98.4315789473684,4099,40.9894736842105,128.063157894737,3649,-229.989473684211,3616,4209,-327.831578947368,-105.273684210526,3799,3809,-322.18947368421,27,0,1563,1771,0,4,4,4,4,4,4,4,4,4,4,4,4,4,4,4,4
"459",4152,-305.157894736842,4081,338.021052631579,126.526315789474,3092,-236.663157894737,3166,4206,-203.105263157895,-105.273684210526,3199,3810,-277.978947368421,28,0,1559,1771,0,4,4,4,4,4,4,4,4,4,4,4,4,4,4,4,4
"460",4146,-267.210526315789,4077,-314.905263157895,124.989473684211,3152,-240.768421052632,3205,4209,-168.747368421053,-102.705263157895,3238,3815,-243.105263157895,29,0,1559,1771,0,4,4,4,4,4,4,4,4,4,4,4,4,4,4,4,4
"461",4152,26.1263157894737,4090,-60.5473684210526,127.042105263158,3641,-238.2,3551,4213,304.578947368421,-105.778947368421,3752,3813,325.094736842105,30,0,1559,1771,0,4,4,4,4,4,4,4,4,4,4,4,4,4,4,4,4
"462",4163,-148.347368421053,4117,-230.4,127.547368421053,4056,-233.073684210526,4057,4205,83.4526315789474,-115.526315789474,4203,3802,40.3684210526316,31,0,1563,1771,0,4,4,4,4,4,4,4,4,4,4,4,4,4,4,4,4
"463",4166,126.526315789474,4132,70.6315789473684,124.989473684211,4134,-233.578947368421,4283,4204,180.884210526316,-110.915789473684,4264,3805,21.4,32,0,1559,1771,0,4,4,4,4,4,4,4,4,4,4,4,4,4,4,4,4
"464",4159,-80.2526315789474,4142,-149.989473684211,129.084210526316,4704,-232.557894736842,4782,4213,39.7473684210526,-101.684210526316,4842,3816,-70.5052631578947,33,0,1559,1775,0,4,4,4,4,4,4,4,4,4,4,4,4,4,4,4,4
"465",4156,81.8,4152,-15.6315789473684,136.778947368421,4973,-229.989473684211,4983,4218,320.778947368421,-99.6315789473684,5152,3818,285.389473684211,34,0,1563,1771,0,4,4,4,4,4,4,4,4,4,4,4,4,4,4,4,4
"466",4155,-106.915789473684,4149,-231.021052631579,130.631578947368,4633,-231.536842105263,4759,4214,-9.48421052631579,-103.726315789474,4780,3810,-131.021052631579,35,0,1555,1771,0,4,4,4,4,4,4,4,4,4,4,4,4,4,4,4,4
"467",4156,46.0105263157895,4130,-59.1157894736842,127.042105263158,4005,-229.989473684211,4186,4215,51.6526315789474,-100.136842105263,4128,3812,-118.094736842105,36,0,1559,1771,0,4,4,4,4,4,4,4,4,4,4,4,4,4,4,4,4
"468",4153,322.536842105263,4106,251.757894736842,131.652631578947,3789,-233.578947368421,3810,4217,-192.957894736842,-99.6315789473684,3926,3813,-239.115789473684,37,0,1555,1771,0,4,4,4,4,4,4,4,4,4,4,4,4,4,4,4,4
"469",4150,34.3263157894737,4092,-23.6210526315789,128.063157894737,3587,-242.810526315789,3549,4207,286.631578947368,-106.294736842105,3736,3807,309.715789473684,38,0,1559,1771,0,4,4,4,4,4,4,4,4,4,4,4,4,4,4,4,4
"470",4154,-249.778947368421,4079,-310.284210526316,120.884210526316,3173,-241.273684210526,3236,4200,-114.389473684211,-109.368421052632,3304,3809,-164.136842105263,39,0,1555,1771,0,4,4,4,4,4,4,4,4,4,4,4,4,4,4,4,4
"471",4158,-142.084210526316,4081,-194.389473684211,127.042105263158,3278,-230.505263157895,3337,4202,-9.26315789473684,-106.294736842105,3407,3813,-73.3684210526316,40,0,1559,1771,0,4,4,4,4,4,4,4,4,4,4,4,4,4,4,4,4
"472",4164,168.168421052632,4096,87.6631578947368,132.168421052632,3769,-233.578947368421,3688,4202,-248.347368421053,-107.315789473684,3888,3812,-234.505263157895,41,0,1555,1767,0,4,4,4,4,4,4,4,4,4,4,4,4,4,4,4,4
"473",4168,124.989473684211,4132,24.9894736842105,129.084210526316,4375,-237.168421052632,4342,4201,-320.252631578947,-114.505263157895,4499,3811,340.368421052632,42,0,1555,1775,0,4,4,4,4,4,4,4,4,4,4,4,4,4,4,4,4
"474",4172,-266.915789473684,4158,336.778947368421,128.578947368421,4506,-229.484210526316,4609,4209,-157.168421052632,-106.810526315789,4637,3813,-274.610526315789,43,0,1559,1771,0,4,4,4,4,4,4,4,4,4,4,4,4,4,4,4,4
"475",4172,0.263157894736842,4167,-66.4,133.705263157895,4764,-225.894736842105,4858,4218,101.8,-98.6,4901,3813,-0.252631578947368,44,0,1555,1771,0,4,4,4,4,4,4,4,4,4,4,4,4,4,4,4,4
"476",4171,-25.8947368421053,4164,-91.0210526315789,140.884210526316,4795,-229.484210526316,4854,4224,143.336842105263,-96.5473684210526,4953,3822,68.978947368421,45,0,1555,1771,0,4,4,4,4,4,4,4,4,4,4,4,4,4,4,4,4
"477",4168,-221.789473684211,4154,-329.989473684211,135.757894736842,4571,-229.484210526316,4685,4223,-85.3789473684211,-96.5473684210526,4701,3822,-217.684210526316,46,0,1559,1771,0,4,4,4,4,4,4,4,4,4,4,4,4,4,4,4,4
"478",4165,-165.273684210526,4127,-258.6,125.494736842105,3886,-230.505263157895,4034,4220,-69.3684210526316,-96.5473684210526,4009,3812,-220.136842105263,47,0,1555,1771,0,4,4,4,4,4,4,4,4,4,4,4,4,4,4,4,4
"479",4164,-53.8736842105263,4091,-91.8315789473684,126.010526315789,3344,-232.042105263158,3423,4221,89.2,-99.1157894736842,3493,3809,11.2526315789474,48,0,1551,1775,0,4,4,4,4,4,4,4,4,4,4,4,4,4,4,4,4
"480",4167,-93.8736842105263,4092,-140.031578947368,130.631578947368,3375,-227.947368421053,3397,4225,105.094736842105,-96.5473684210526,3530,3816,68.1684210526316,49,0,1559,1771,0,4,4,4,4,4,4,4,4,4,4,4,4,4,4,4,4
"481",4164,-4.65263157894737,4104,-96.9578947368421,126.010526315789,3531,-232.042105263158,3515,4222,230.736842105263,-94.5052631578947,3661,3815,195.347368421053,50,0,1555,1771,0,4,4,4,4,4,4,4,4,4,4,4,4,4,4,4,4
"482",4158,248.684210526316,4105,173.810526315789,126.526315789474,3696,-239.736842105263,3742,4216,-282.18947368421,-102.705263157895,3830,3810,-319.631578947368,51,0,1555,1775,0,4,4,4,4,4,4,4,4,4,4,4,4,4,4,4,4
"483",4174,-148.347368421053,4115,-226.810526315789,134.221052631579,3901,-235.631578947368,4014,4214,-83.2210526315789,-108.347368421053,4023,3810,-128.863157894737,52,0,1559,1767,0,4,4,4,4,4,4,4,4,4,4,4,4,4,4,4,4
"484",4192,-51.0210526315789,4163,-160.768421052632,134.221052631579,4759,-226.915789473684,4836,4205,63.8526315789474,-112.957894736842,4866,3814,-4.86315789473684,53,0,1555,1771,0,4,4,4,4,4,4,4,4,4,4,4,4,4,4,4,4
"485",4196,214.621052631579,4195,117.189473684211,133.189473684211,5100,-229.484210526316,5116,4207,-278.821052631579,-110.915789473684,5229,3818,343.852631578947,54,0,1559,1775,0,4,4,4,4,4,4,4,4,4,4,4,4,4,4,4,4
"486",4192,55.1368421052632,4186,-5.89473684210526,134.726315789474,4815,-233.073684210526,4912,4210,142.315789473684,-110.4,4947,3811,37.6947368421053,55,0,1559,1775,0,4,4,4,4,4,4,4,4,4,4,4,4,4,4,4,4
"487",4190,292.684210526316,4168,251.652631578947,136.273684210526,4292,-230.505263157895,4443,4210,334.221052631579,-106.810526315789,4433,3809,203.957894736842,56,0,1559,1771,0,4,4,4,4,4,4,4,4,4,4,4,4,4,4,4,4
"488",4186,-19.6315789473684,4154,-86.2947368421053,133.705263157895,4169,-228.452631578947,4183,4213,212.168421052632,-102.705263157895,4332,3815,159.347368421053,57,0,1555,1775,0,4,4,4,4,4,4,4,4,4,4,4,4,4,4,4,4
"489",4185,259.968421052632,4139,186.631578947368,136.778947368421,3813,-228.452631578947,3785,4217,-150.4,-103.221052631579,3979,3818,-152.957894736842,58,0,1559,1771,0,4,4,4,4,4,4,4,4,4,4,4,4,4,4,4,4
"490",4183,-195.926315789474,4112,-247.726315789474,135.242105263158,3216,-229.989473684211,3278,4216,-86.1894736842105,-102.189473684211,3322,3813,-151.831578947368,59,0,1555,1767,0,4,4,4,4,4,4,4,4,4,4,4,4,4,4,4,4
"491",4172,-144.652631578947,4097,-182.084210526316,131.652631578947,3278,-231.021052631579,3329,4222,-26.6947368421053,-94.5052631578947,3384,3810,-92.8526315789474,60,0,1555,1775,0,4,4,4,4,4,4,4,4,4,4,4,4,4,4,4,4
"492",4165,150.221052631579,4101,75.3473684210526,133.189473684211,3750,-229.989473684211,3682,4232,-237.063157894737,-89.8842105263158,3904,3814,-212.957894736842,61,0,1559,1767,0,4,4,4,4,4,4,4,4,4,4,4,4,4,4,4,4
"493",4156,51.1368421052632,4123,-40.1368421052632,135.242105263158,4264,-228.452631578947,4265,4223,289.6,-95.5263157894737,4418,3816,259.347368421053,62,0,1555,1771,0,4,4,4,4,4,4,4,4,4,4,4,4,4,4,4,4
"494",4155,299.863157894737,4134,219.863157894737,133.189473684211,4333,-235.126315789474,4467,4216,-332.557894736842,-99.6315789473684,4448,3815,212.168421052632,63,0,1555,1775,0,4,4,4,4,4,4,4,4,4,4,4,4,4,4,4,4
"495",4163,-45.3789473684211,4143,-118.2,129.084210526316,4722,-237.684210526316,4804,4214,33.6,-106.294736842105,4831,3812,-77.6842105263158,64,0,1555,1775,572,4,4,4,4,4,4,4,4,4,4,4,4,4,4,4,4
"496",4176,10.5157894736842,4163,-72.0421052631579,133.189473684211,4882,-232.557894736842,4892,4211,189.494736842105,-107.831578947368,5010,3814,145.905263157895,65,0,1551,1775,406,4,4,4,4,4,4,4,4,4,4,4,4,4,4,4,4
"497",4185,-176.147368421053,4170,-284.357894736842,135.242105263158,4611,-231.536842105263,4728,4208,-46.9157894736842,-110.4,4743,3813,-168.968421052632,66,0,1559,1775,494,4,4,4,4,4,4,4,4,4,4,4,4,4,4,4,4
"498",4186,-36.0421052631579,4152,-118.6,135.757894736842,3965,-232.557894736842,4160,4209,34.7263157894737,-111.421052631579,4113,3813,-136.042105263158,67,0,1551,1771,464,4,4,4,4,4,4,4,4,4,4,4,4,4,4,4,4
"499",4186,221.505263157895,4129,174.326315789474,137.810526315789,3648,-228.968421052632,3705,4211,-318.6,-110.915789473684,3792,3815,310.736842105263,68,0,1555,1775,501,4,4,4,4,4,4,4,4,4,4,4,4,4,4,4,4
"500",4190,54.8421052631579,4126,5.09473684210526,139.347368421053,3569,-228.452631578947,3546,4211,263.557894736842,-112.452631578947,3698,3814,257.915789473684,69,0,1555,1775,515,4,4,4,4,4,4,4,4,4,4,4,4,4,4,4,4
"501",4189,-129.263157894737,4121,-203.105263157895,137.810526315789,3316,-230.505263157895,3371,4213,29.2,-113.473684210526,3441,3813,-37.4631578947368,70,0,1559,1771,505,4,4,4,4,4,4,4,4,4,4,4,4,4,4,4,4
"502",4177,8.68421052631579,4113,-49.7789473684211,135.242105263158,3436,-228.968421052632,3495,4219,157.915789473684,-108.863157894737,3579,3814,108.168421052632,71,0,1559,1771,6369,4,4,4,4,4,4,4,4,4,4,4,4,4,4,4,4
"503",4168,322.021052631579,4113,258.431578947368,137.810526315789,3886,-228.968421052632,3824,4229,-111.936842105263,-99.6315789473684,4033,3816,-76.5473684210526,72,0,1555,1775,6385,4,4,4,4,4,4,4,4,4,4,4,4,4,4,4,4
"504",4158,240.884210526316,4133,153.189473684211,133.705263157895,4479,-230.505263157895,4449,4233,-201.789473684211,-98.6,4623,3815,-222.810526315789,73,0,1563,1771,6510,4,4,4,4,4,4,4,4,4,4,4,4,4,4,4,4
"505",4152,-238.2,4145,-323.326315789474,123.452631578947,4545,-235.631578947368,4642,4232,-105.894736842105,-103.726315789474,4690,3814,-223.842105263158,74,0,1555,1771,6586,4,4,4,4,4,4,4,4,4,4,4,4,4,4,4,4
"506",4152,-74.6105263157895,4139,-136.147368421053,123.957894736842,4670,-238.715789473684,4779,4225,20.2631578947368,-108.863157894737,4819,3810,-84.3578947368421,75,0,1559,1771,6109,4,4,4,4,4,4,4,4,4,4,4,4,4,4,4,4
"507",4152,-94.0947368421053,4139,-155.126315789474,134.221052631579,4708,-233.578947368421,4775,4223,50.0105263157895,-100.136842105263,4854,3814,-31.0210526315789,76,0,1559,1771,6200,4,4,4,4,4,4,4,4,4,4,4,4,4,4,4,4
"508",4151,-297.684210526316,4142,297.810526315789,133.705263157895,4501,-231.536842105263,4611,4224,-143.842105263158,-99.6315789473684,4634,3815,-291.536842105263,77,0,1563,1767,5853,4,4,4,4,4,4,4,4,4,4,4,4,4,4,4,4
"509",4162,-174.505263157895,4125,-248.863157894737,132.168421052632,3883,-235.631578947368,4031,4217,-53.9894736842105,-108.347368421053,4016,3812,-219.631578947368,78,0,1555,1771,6586,4,4,4,4,4,4,4,4,4,4,4,4,4,4,4,4
"510",4170,62.5368421052632,4102,17.9157894736842,134.221052631579,3477,-234.094736842105,3537,4212,192.273684210526,-110.4,3603,3812,127.147368421053,79,0,1563,1771,6109,4,4,4,4,4,4,4,4,4,4,4,4,4,4,4,4
"511",4173,-12.3368421052632,4109,-76.4421052631579,133.705263157895,3466,-227.947368421053,3471,4214,165.094736842105,-106.810526315789,3604,3815,152.273684210526,80,0,1555,1767,6200,4,4,4,4,4,4,4,4,4,4,4,4,4,4,4,4
"512",4179,-73.8736842105263,4122,-159.010526315789,133.189473684211,3405,-231.536842105263,3431,4218,110.221052631579,-108.863157894737,3533,3812,64.5789473684211,81,0,1555,1771,5853,4,4,4,4,4,4,4,4,4,4,4,4,4,4,4,4
"513",4182,41.5052631578947,4120,-6.18947368421053,131.136842105263,3507,-236.663157894737,3527,4217,216.378947368421,-114.505263157895,3639,3808,177.915789473684,82,0,1559,1767,6586,4,4,4,4,4,4,4,4,4,4,4,4,4,4,4,4
"514",4180,323.042105263158,4125,271.252631578947,130.631578947368,3862,-234.094736842105,3813,4220,-126.294736842105,-112.957894736842,4015,3812,-123.726315789474,83,0,1555,1771,6109,4,4,4,4,4,4,4,4,4,4,4,4,4,4,4,4
"515",4182,-310.505263157895,4161,290.631578947368,137.294736842105,4601,-226.915789473684,4585,4222,-68.4526315789474,-107.831578947368,4762,3817,-112.557894736842,84,0,1555,1771,6200,4,4,4,4,4,4,4,4,4,4,4,4,4,4,4,4
"516",4183,11.5473684210526,4185,-72.0421052631579,143.957894736842,4836,-228.968421052632,4893,4222,154.621052631579,-102.705263157895,4959,3817,57.6947368421053,85,0,1555,1771,5853,4,4,4,4,4,4,4,4,4,4,4,4,4,4,4,4
"517",4172,54.6210526315789,4176,-5.89473684210526,135.757894736842,4812,-237.168421052632,4903,4220,113.084210526316,-107.831578947368,4908,3813,13.0842105263158,86,0,1555,1771,6586,4,4,4,4,4,4,4,4,4,4,4,4,4,4,4,4
"518",4165,-149.484210526316,4163,-213.073684210526,129.6,4620,-242.305263157895,4710,4217,-44.3578947368421,-110.4,4755,3814,-146.915789473684,87,0,1551,1771,6109,4,4,4,4,4,4,4,4,4,4,4,4,4,4,4,4
"519",4165,244.989473684211,4151,149.6,130.115789473684,4399,-241.789473684211,4450,4206,-241.789473684211,-112.452631578947,4557,3811,-339.736842105263,88,0,1555,1771,6200,4,4,4,4,4,4,4,4,4,4,4,4,4,4,4,4
"520",4163,326.126315789474,4124,256.894736842105,130.115789473684,3779,-239.221052631579,3828,4204,-172.452631578947,-113.989473684211,3934,3808,-239.115789473684,89,0,1555,1771,5853,4,4,4,4,4,4,4,4,4,4,4,4,4,4,4,4
"521",4163,-143.621052631579,4092,-174.905263157895,132.168421052632,3261,-240.252631578947,3327,4211,-19.5157894736842,-111.421052631579,3396,3812,-67.7263157894737,90,0,1551,1775,6586,4,4,4,4,4,4,4,4,4,4,4,4,4,4,4,4
"522",4168,-152.336842105263,4090,-200.547368421053,134.726315789474,3285,-240.252631578947,3337,4210,7.66315789473684,-109.368421052632,3427,3814,-47.2105263157895,91,0,1555,1771,6109,4,4,4,4,4,4,4,4,4,4,4,4,4,4,4,4
"523",4171,-92.8526315789474,4104,-168.242105263158,133.705263157895,3421,-234.610526315789,3419,4210,147.663157894737,-105.273684210526,3575,3814,107.147368421053,92,0,1551,1771,6200,4,4,4,4,4,4,4,4,4,4,4,4,4,4,4,4
"524",4167,200.989473684211,4116,142.021052631579,133.189473684211,3643,-231.536842105263,3686,4221,-344.242105263158,-101.168421052632,3771,3817,316.378947368421,93,0,1555,1771,5853,4,4,4,4,4,4,4,4,4,4,4,4,4,4,4,4
"525",4172,-138.6,4126,-217.063157894737,137.810526315789,3941,-236.147368421053,4029,4227,-96.0421052631579,-99.1157894736842,4011,3817,-140.136842105263,94,0,1555,1771,6586,4,4,4,4,4,4,4,4,4,4,4,4,4,4,4,4
"526",4177,-112.557894736842,4153,-216.147368421053,138.831578947368,4714,-235.126315789474,4773,4222,-1.78947368421053,-102.189473684211,4800,3814,-75.1263157894737,95,0,1559,1771,6109,4,4,4,4,4,4,4,4,4,4,4,4,4,4,4,4
"527",4182,122.831578947368,4178,52.5684210526316,138.831578947368,4980,-231.536842105263,5015,4221,313.6,-103.726315789474,5128,3816,237.694736842105,96,0,1555,1771,6200,4,4,4,4,4,4,4,4,4,4,4,4,4,4,4,4
"528",4182,14.1052631578947,4182,-28.9684210526316,135.242105263158,4763,-234.094736842105,4868,4221,88.978947368421,-109.368421052632,4887,3812,-22.3052631578947,97,0,1563,1771,5853,4,4,4,4,4,4,4,4,4,4,4,4,4,4,4,4
"529",4176,299.863157894737,4169,253.705263157895,131.652631578947,4301,-237.168421052632,4450,4223,324.989473684211,-108.863157894737,4417,3808,188.063157894737,98,0,1559,1771,6586,4,4,4,4,4,4,4,4,4,4,4,4,4,4,4,4
"530",4167,-28.8631578947368,4151,-90.9157894736842,128.063157894737,4141,-239.221052631579,4167,4221,201.4,-105.273684210526,4325,3808,154.221052631579,99,0,1559,1775,6109,4,4,4,4,4,4,4,4,4,4,4,4,4,4,4,4
"531",4165,207.663157894737,4130,154.326315789474,128.578947368421,3751,-237.684210526316,3730,4223,-185.778947368421,-103.726315789474,3954,3810,-173.473684210526,100,0,1559,1771,6200,4,4,4,4,4,4,4,4,4,4,4,4,4,4,4,4
"532",4162,-229.778947368421,4101,-272.852631578947,131.652631578947,3176,-232.557894736842,3244,4229,-124.652631578947,-97.0631578947368,3283,3814,-193.873684210526,101,0,1563,1771,5853,4,4,4,4,4,4,4,4,4,4,4,4,4,4,4,4
"533",4159,-119.010526315789,4095,-167.210526315789,135.757894736842,3292,-227.947368421053,3348,4229,-21.5684210526316,-91.4210526315789,3382,3817,-97.978947368421,102,0,1559,1775,6586,4,4,4,4,4,4,4,4,4,4,4,4,4,4,4,4
"534",4163,193.305263157895,4111,115.347368421053,137.294736842105,3791,-229.484210526316,3719,4226,-195.010526315789,-92.9578947368421,3946,3817,-165.273684210526,103,0,1563,1771,6109,4,4,4,4,4,4,4,4,4,4,4,4,4,4,4,4
"535",4159,59.8631578947368,4131,-20.6526315789474,137.294736842105,4265,-228.968421052632,4267,4221,292.684210526316,-99.1157894736842,4422,3815,263.957894736842,104,0,1559,1775,6200,4,4,4,4,4,4,4,4,4,4,4,4,4,4,4,4
"536",4157,288.063157894737,4137,208.578947368421,137.810526315789,4308,-231.021052631579,4446,4219,326.010526315789,-97.0631578947368,4410,3817,173.189473684211,105,0,1559,1771,5853,4,4,4,4,4,4,4,4,4,4,4,4,4,4,4,4
"537",4157,-65.3789473684211,4145,-135.631578947368,133.189473684211,4678,-233.578947368421,4777,4214,8.46315789473684,-99.6315789473684,4798,3815,-108.452631578947,106,0,1555,1771,6586,4,4,4,4,4,4,4,4,4,4,4,4,4,4,4,4
"538",4163,-63.8421052631579,4156,-126.915789473684,132.684210526316,4769,-231.536842105263,4812,4212,117.694736842105,-106.294736842105,4933,3814,55.1368421052632,107,0,1559,1771,6109,4,4,4,4,4,4,4,4,4,4,4,4,4,4,4,4
"539",4167,-226.915789473684,4162,-325.894736842105,137.294736842105,4555,-231.021052631579,4676,4209,-100.768421052632,-109.368421052632,4681,3816,-247.947368421053,108,0,1555,1775,6200,4,4,4,4,4,4,4,4,4,4,4,4,4,4,4,4
"540",4176,-87.8315789473684,4154,-172.957894736842,142.421052631579,3938,-229.989473684211,4109,4209,-17.5789473684211,-101.684210526316,4053,3817,-190.915789473684,109,0,1555,1771,5853,4,4,4,4,4,4,4,4,4,4,4,4,4,4,4,4
"541",4183,75.8631578947368,4132,32.2736842105263,141.905263157895,3474,-228.452631578947,3552,4215,209.715789473684,-96.5473684210526,3619,3818,145.610526315789,110,0,1555,1767,6586,4,4,4,4,4,4,4,4,4,4,4,4,4,4,4,4
"542",4178,-29.7789473684211,4123,-82.0842105263158,141.4,3437,-226.915789473684,3459,4215,171.252631578947,-99.6315789473684,3602,3818,153.305263157895,111,0,1555,1775,6109,4,4,4,4,4,4,4,4,4,4,4,4,4,4,4,4
"543",4172,-24.1368421052632,4123,-100.031578947368,140.884210526316,3471,-227.947368421053,3491,4216,194.326315789474,-99.6315789473684,3622,3818,153.305263157895,112,0,1559,1767,6200,4,4,4,4,4,4,4,4,4,4,4,4,4,4,4,4
"544",4168,212.273684210526,4122,157.915789473684,138.831578947368,3649,-228.968421052632,3700,4215,-341.684210526316,-99.1157894736842,3772,3816,312.789473684211,113,0,1555,1767,5853,4,4,4,4,4,4,4,4,4,4,4,4,4,4,4,4
"545",4165,-186.294736842105,4118,-263.221052631579,138.831578947368,3921,-231.536842105263,3978,4217,-111.936842105263,-97.0631578947368,4002,3815,-141.168421052632,114,0,1555,1771,6586,4,4,4,4,4,4,4,4,4,4,4,4,4,4,4,4
"546",4154,-147.431578947368,4141,-252.557894736842,136.778947368421,4689,-231.536842105263,4734,4216,-21.7894736842105,-100.652631578947,4782,3816,-92.0421052631579,115,0,1555,1771,6109,4,4,4,4,4,4,4,4,4,4,4,4,4,4,4,4
"547",4157,105.389473684211,4169,27.9578947368421,138.831578947368,4957,-228.968421052632,4992,4219,281.8,-99.6315789473684,5094,3820,198.726315789474,116,0,1563,1767,6200,4,4,4,4,4,4,4,4,4,4,4,4,4,4,4,4
"548",4172,65.3894736842105,4176,9.49473684210526,141.4,4812,-227.947368421053,4912,4222,124.873684210526,-95.0105263157895,4921,3822,8.46315789473684,117,0,1551,1771,5853,4,4,4,4,4,4,4,4,4,4,4,4,4,4,4,4
"549",4174,-317.684210526316,4164,326.010526315789,141.905263157895,4383,-229.484210526316,4517,4220,-290.505263157895,-91.9368421052632,4489,3822,265.494736842105,118,0,1559,1771,6586,4,4,4,4,4,4,4,4,4,4,4,4,4,4,4,4
"550",4168,15.7578947368421,4147,-43.7263157894737,141.905263157895,4189,-229.989473684211,4213,4217,248.063157894737,-96.0421052631579,4368,3817,205.494736842105,119,0,1559,1767,6109,4,4,4,4,4,4,4,4,4,4,4,4,4,4,4,4
"551",4173,254.326315789474,4137,190.221052631579,144.473684210526,3782,-228.968421052632,3776,4218,-147.315789473684,-97.0631578947368,3985,3823,-146.294736842105,120,0,1555,1775,6200,4,4,4,4,4,4,4,4,4,4,4,4,4,4,4,4
"552",4181,-178.494736842105,4121,-227.210526315789,142.936842105263,3217,-227.947368421053,3291,4214,-79.5157894736842,-97.5789473684211,3323,3828,-158.494736842105,121,0,1559,1771,5853,4,4,4,4,4,4,4,4,4,4,4,4,4,4,4,4
"553",4178,-127.726315789474,4114,-162.084210526316,141.4,3284,-229.484210526316,3338,4207,-42.0842105263158,-102.705263157895,3362,3822,-110.284210526316,122,0,1555,1771,6586,4,4,4,4,4,4,4,4,4,4,4,4,4,4,4,4
"554",4179,139.452631578947,4126,64.5789473684211,139.863157894737,3737,-232.042105263158,3663,4208,-269.368421052632,-107.315789473684,3867,3815,-237.578947368421,123,0,1555,1771,6109,4,4,4,4,4,4,4,4,4,4,4,4,4,4,4,4
"555",4179,51.1368421052632,4156,-40.1368421052632,138.831578947368,4254,-228.968421052632,4255,4208,275.242105263158,-109.884210526316,4400,3816,240.884210526316,124,0,1559,1775,6200,4,4,4,4,4,4,4,4,4,4,4,4,4,4,4,4
"556",4174,325.494736842105,4165,251.136842105263,139.863157894737,4339,-229.989473684211,4487,4206,-317.168421052632,-103.726315789474,4461,3818,219.863157894737,125,0,1559,1771,5853,4,4,4,4,4,4,4,4,4,4,4,4,4,4,4,4
"557",4161,-37.1684210526316,4161,-108.452631578947,134.726315789474,4711,-238.715789473684,4807,4205,34.1052631578947,-100.652631578947,4825,3814,-81.7894736842105,126,0,1555,1775,6586,4,4,4,4,4,4,4,4,4,4,4,4,4,4,4,4
"558",4153,-42.3052631578947,4161,-134.610526315789,125.494736842105,4813,-245.378947368421,4829,4213,124.368421052632,-99.6315789473684,4936,3814,70.5157894736842,127,0,1559,1775,6109,4,4,4,4,4,4,4,4,4,4,4,4,4,4,4,4
"559",4147,-233.073684210526,4152,344.473684210526,128.578947368421,4555,-239.221052631579,4673,4216,-100.768421052632,-98.0947368421053,4685,3815,-228.968421052632,128,0,1559,1771,6200,4,4,4,4,4,4,4,4,4,4,4,4,4,4,4,4
"560",4146,-116.547368421053,4125,-187.831578947368,140.368421052632,3889,-233.073684210526,4090,4218,-37.0631578947368,-92.9578947368421,4037,3817,-207.831578947368,0,0,1555,1775,572,4,4,4,4,4,4,4,4,4,4,4,4,4,4,4,4
"561",4148,78.9368421052632,4094,34.3263157894737,136.273684210526,3479,-235.631578947368,3551,4217,195.863157894737,-92.4526315789474,3604,3816,120.484210526316,1,0,1559,1771,406,4,4,4,4,4,4,4,4,4,4,4,4,4,4,4,4
"562",4154,-55.9263157894737,4092,-119.515789473684,131.652631578947,3419,-236.663157894737,3414,4215,107.663157894737,-96.0421052631579,3539,3813,93.8105263157895,2,0,1559,1775,494,4,4,4,4,4,4,4,4,4,4,4,4,4,4,4,4
"563",4161,-159.515789473684,4098,-236.957894736842,134.726315789474,3292,-238.715789473684,3340,4214,-2.08421052631579,-99.1157894736842,3419,3810,-44.6526315789474,3,0,1555,1771,466,4,4,4,4,4,4,4,4,4,4,4,4,4,4,4,4
"564",4158,-10.8,4102,-53.3684210526316,130.115789473684,3434,-242.305263157895,3471,4206,133.305263157895,-103.726315789474,3555,3807,86.6315789473684,4,0,1555,1775,501,4,4,4,4,4,4,4,4,4,4,4,4,4,4,4,4
"565",4158,287.663157894737,4113,235.863157894737,124.473684210526,3822,-244.863157894737,3762,4201,-187.831578947368,-105.778947368421,3943,3805,-209.368421052632,5,0,1559,1771,515,4,4,4,4,4,4,4,4,4,4,4,4,4,4,4,4
"566",4157,308.578947368421,4145,216.778947368421,130.115789473684,4519,-242.305263157895,4501,4200,-156.147368421053,-107.315789473684,4660,3807,-222.810526315789,6,0,1555,1775,505,4,4,4,4,4,4,4,4,4,4,4,4,4,4,4,4
