"","AF3","AF4","F3","F4","F7","F8","FC5","FC6","O1","O2","P7","P8","T7","T8","COUNTER","INTERPOLATED","GYROX","GYROY","RAW_CQ","CQ_CMS","CQ_F7","CQ_T7","CQ_O2","CQ_FC6","CQ_AF4","CQ_F3","CQ_P7","CQ_P8","CQ_F4","CQ_AF3","CQ_FC5","CQ_O1","CQ_T8","CQ_F8","CQ_DRL"
"1",4482,316.378947368421,4225,264.578947368421,200.884210526316,3821,-283.326315789474,3953,4416,223.452631578947,-26.2947368421053,4268,3877,-1.16842105263158,75,0,2311,2555,421,4,4,4,4,4,4,4,4,4,4,4,4,4,4,4,4
"2",4468,312.789473684211,4218,259.968421052632,200.368421052632,3811,-278.2,3941,4412,215.757894736842,-28.8631578947368,4258,3880,-11.4210526315789,76,0,2287,2531,531,4,4,4,4,4,4,4,4,4,4,4,4,4,4,4,4
"3",4462,313.305263157895,4215,267.147368421053,200.884210526316,3816,-273.073684210526,3945,4413,225.494736842105,-29.3684210526316,4265,3881,-0.652631578947368,77,0,2283,2531,473,4,4,4,4,4,4,4,4,4,4,4,4,4,4,4,4
"4",4446,311.252631578947,4218,264.578947368421,201.905263157895,3809,-276.663157894737,3934,4415,218.315789473684,-29.3684210526316,4262,3878,-9.88421052631579,78,0,2291,2531,587,4,4,4,4,4,4,4,4,4,4,4,4,4,4,4,4
"5",4426,297.4,4213,245.094736842105,199.347368421053,3786,-285.894736842105,3912,4412,192.684210526316,-32.4526315789474,4237,3878,-36.5473684210526,79,0,2287,2531,421,4,4,4,4,4,4,4,4,4,4,4,4,4,4,4,4
"6",4425,289.715789473684,4205,235.347368421053,192.684210526316,3779,-285.378947368421,3904,4408,182.936842105263,-34.5052631578947,4226,3877,-44.2421052631579,80,0,2287,2539,531,4,4,4,4,4,4,4,4,4,4,4,4,4,4,4,4
"7",4438,297.4,4208,242.536842105263,194.221052631579,3791,-279.736842105263,3913,4409,192.168421052632,-33.4736842105263,4235,3876,-38.0947368421053,81,0,2291,2539,473,4,4,4,4,4,4,4,4,4,4,4,4,4,4,4,4
"8",4452,300.989473684211,4216,245.094736842105,201.4,3794,-278.715789473684,3922,4419,195.757894736842,-30.4,4239,3878,-39.6315789473684,82,0,2295,2555,587,4,4,4,4,4,4,4,4,4,4,4,4,4,4,4,4
"9",4454,306.126315789474,4220,245.610526315789,199.347368421053,3793,-280.768421052632,3924,4424,197.294736842105,-30.9157894736842,4241,3878,-40.6526315789474,83,0,2295,2547,421,4,4,4,4,4,4,4,4,4,4,4,4,4,4,4,4
"10",4436,297.4,4209,234.326315789474,186.526315789474,3786,-283.842105263158,3913,4421,189.084210526316,-33.4736842105263,4230,3871,-52.4526315789474,84,0,2291,2539,531,4,4,4,4,4,4,4,4,4,4,4,4,4,4,4,4
"11",4416,280.484210526316,4201,218.431578947368,176.273684210526,3767,-290.505263157895,3901,4422,169.6,-35.5263157894737,4209,3863,-70.4,85,0,2287,2535,473,4,4,4,4,4,4,4,4,4,4,4,4,4,4,4,4
"12",4414,291.757894736842,4207,229.715789473684,177.294736842105,3775,-291.536842105263,3912,4427,181.4,-33.9894736842105,4221,3865,-56.5473684210526,86,0,2291,2539,587,4,4,4,4,4,4,4,4,4,4,4,4,4,4,4,4
"13",4420,310.221052631579,4211,247.147368421053,183.957894736842,3798,-288.968421052632,3927,4430,206.526315789474,-33.9894736842105,4247,3873,-34.5052631578947,87,0,2295,2535,421,4,4,4,4,4,4,4,4,4,4,4,4,4,4,4,4
"14",4415,317.915789473684,4210,252.789473684211,185.494736842105,3804,-292.557894736842,3928,4427,209.6,-35.5263157894737,4252,3875,-26.2947368421053,88,0,2287,2531,531,4,4,4,4,4,4,4,4,4,4,4,4,4,4,4,4
"15",4413,314.842105263158,4210,253.810526315789,186.526315789474,3802,-289.989473684211,3926,4431,209.084210526316,-32.9578947368421,4254,3879,-19.1157894736842,89,0,2299,2543,473,4,4,4,4,4,4,4,4,4,4,4,4,4,4,4,4
"16",4411,317.915789473684,4209,257.915789473684,188.063157894737,3808,-285.378947368421,3926,4432,218.831578947368,-36.0421052631579,4265,3877,-16.0421052631579,90,0,2311,2555,587,4,4,4,4,4,4,4,4,4,4,4,4,4,4,4,4
"17",4407,331.252631578947,4199,264.578947368421,180.368421052632,3820,-289.484210526316,3946,4424,226.010526315789,-47.8315789473684,4271,3866,-12.4526315789474,91,0,2319,2559,421,4,4,4,4,4,4,4,4,4,4,4,4,4,4,4,4
"18",4410,328.684210526316,4198,261.505263157895,172.684210526316,3817,-290.505263157895,3953,4424,221.4,-48.8631578947368,4267,3865,-13.4736842105263,92,0,2315,2555,531,4,4,4,4,4,4,4,4,4,4,4,4,4,4,4,4
"19",4414,324.578947368421,4205,260.484210526316,176.778947368421,3813,-282.305263157895,3931,4428,217.294736842105,-38.0947368421053,4263,3876,-23.2210526315789,93,0,2295,2539,473,4,4,4,4,4,4,4,4,4,4,4,4,4,4,4,4
"20",4414,333.305263157895,4201,264.578947368421,181.4,3820,-276.147368421053,3951,4430,219.347368421053,-40.6526315789474,4269,3877,-25.2736842105263,94,0,2291,2535,587,4,4,4,4,4,4,4,4,4,4,4,4,4,4,4,4
"21",4410,330.736842105263,4201,257.915789473684,179.347368421053,3815,-278.2,3931,4426,212.168421052632,-45.7789473684211,4263,3872,-27.3157894736842,95,0,2291,2535,421,4,4,4,4,4,4,4,4,4,4,4,4,4,4,4,4
"22",4410,295.863157894737,4204,222.536842105263,180.368421052632,3773,-276.147368421053,3753,4426,181.4,-38.0947368421053,4224,3877,-61.1684210526316,96,0,2295,2535,531,4,4,4,4,4,4,4,4,4,4,4,4,4,4,4,4
"23",4416,254.842105263158,4203,175.347368421053,187.042105263158,3726,-264.863157894737,3584,4437,144.473684210526,-31.4210526315789,4177,3879,-105.273684210526,97,0,2291,2531,473,4,4,4,4,4,4,4,4,4,4,4,4,4,4,4,4
"24",4415,248.684210526316,4210,164.073684210526,187.547368421053,3715,-251.021052631579,3581,4444,134.221052631579,-32.9578947368421,4167,3878,-113.989473684211,98,0,2295,2539,587,4,4,4,4,4,4,4,4,4,4,4,4,4,4,4,4
"25",4405,250.221052631579,4212,169.2,181.905263157895,3717,-243.326315789474,3607,4449,143.452631578947,-33.9894736842105,4175,3878,-107.315789473684,99,0,2295,2531,421,4,4,4,4,4,4,4,4,4,4,4,4,4,4,4,4
"26",4395,245.610526315789,4204,164.073684210526,178.831578947368,3708,-245.894736842105,3581,4455,139.863157894737,-33.9894736842105,4168,3877,-117.063157894737,100,0,2291,2535,531,4,4,4,4,4,4,4,4,4,4,4,4,4,4,4,4
"27",4392,253.305263157895,4205,170.221052631579,180.884210526316,3713,-240.768421052632,3589,4459,135.757894736842,-33.4736842105263,4166,3877,-118.6,101,0,2299,2535,473,4,4,4,4,4,4,4,4,4,4,4,4,4,4,4,4
"28",4390,262.021052631579,4209,179.968421052632,181.4,3726,-228.452631578947,3616,4458,151.136842105263,-32.9578947368421,4179,3879,-105.273684210526,102,0,2295,2527,587,4,4,4,4,4,4,4,4,4,4,4,4,4,4,4,4
"29",4376,269.2,4205,182.021052631579,178.831578947368,3731,-225.894736842105,3619,4460,161.905263157895,-33.4736842105263,4186,3878,-99.6315789473684,103,0,2299,2527,421,4,4,4,4,4,4,4,4,4,4,4,4,4,4,4,4
"30",4368,269.715789473684,4202,180.484210526316,178.831578947368,3732,-223.326315789474,3616,4465,155.242105263158,-32.4526315789474,4186,3878,-100.652631578947,104,0,2295,2527,531,4,4,4,4,4,4,4,4,4,4,4,4,4,4,4,4
"31",4376,273.305263157895,4211,186.126315789474,183.957894736842,3736,-206.915789473684,3622,4462,154.726315789474,-30.9157894736842,4193,3881,-94.5052631578947,105,0,2291,2531,473,4,4,4,4,4,4,4,4,4,4,4,4,4,4,4,4
"32",4385,289.715789473684,4215,199.968421052632,187.547368421053,3748,-192.042105263158,3642,4456,172.684210526316,-32.9578947368421,4207,3882,-79.6315789473684,106,0,2295,2535,587,4,4,4,4,4,4,4,4,4,4,4,4,4,4,4,4
"33",4388,293.810526315789,4206,201.505263157895,188.063157894737,3750,-187.431578947368,3648,4464,179.347368421053,-34.5052631578947,4207,3880,-76.0421052631579,107,0,2287,2535,421,4,4,4,4,4,4,4,4,4,4,4,4,4,4,4,4
"34",4391,298.431578947368,4206,203.557894736842,182.936842105263,3753,-185.378947368421,3648,4470,180.368421052632,-35.0105263157895,4208,3878,-77.5789473684211,108,0,2291,2539,531,4,4,4,4,4,4,4,4,4,4,4,4,4,4,4,4
"35",4395,308.168421052632,4209,213.305263157895,179.347368421053,3767,-185.894736842105,3665,4464,190.115789473684,-34.5052631578947,4223,3878,-67.8315789473684,109,0,2291,2531,473,4,4,4,4,4,4,4,4,4,4,4,4,4,4,4,4
"36",4389,314.842105263158,4207,222.021052631579,182.421052631579,3777,-184.863157894737,3681,4465,195.242105263158,-32.4526315789474,4232,3881,-56.5473684210526,110,0,2287,2539,587,4,4,4,4,4,4,4,4,4,4,4,4,4,4,4,4
"37",4379,321.505263157895,4206,226.631578947368,184.473684210526,3778,-183.326315789474,3686,4476,196.778947368421,-30.4,4234,3882,-54.5052631578947,111,0,2291,2535,421,4,4,4,4,4,4,4,4,4,4,4,4,4,4,4,4
"38",4375,318.936842105263,4208,220.484210526316,181.905263157895,3772,-183.842105263158,3685,4478,194.221052631579,-29.8842105263158,4230,3882,-63.7263157894737,112,0,2291,2535,531,4,4,4,4,4,4,4,4,4,4,4,4,4,4,4,4
"39",4367,308.168421052632,4208,211.252631578947,180.884210526316,3761,-178.715789473684,3674,4474,182.421052631579,-28.8631578947368,4219,3883,-76.5473684210526,113,0,2287,2535,473,4,4,4,4,4,4,4,4,4,4,4,4,4,4,4,4
"40",4358,295.863157894737,4205,198.431578947368,181.905263157895,3744,-172.042105263158,3655,4475,167.547368421053,-28.8631578947368,4201,3883,-88.3473684210526,114,0,2291,2539,587,4,4,4,4,4,4,4,4,4,4,4,4,4,4,4,4
"41",4354,290.221052631579,4204,188.168421052632,177.810526315789,3725,-171.021052631579,3639,4474,155.242105263158,-34.5052631578947,4184,3881,-102.705263157895,115,0,2295,2531,421,4,4,4,4,4,4,4,4,4,4,4,4,4,4,4,4
"42",4355,291.757894736842,4200,188.684210526316,174.221052631579,3721,-172.557894736842,3636,4471,150.115789473684,-38.0947368421053,4180,3876,-110.915789473684,116,0,2287,2531,531,4,4,4,4,4,4,4,4,4,4,4,4,4,4,4,4
"43",4365,292.273684210526,4198,190.736842105263,178.315789473684,3727,-166.4,3646,4475,155.757894736842,-34.5052631578947,4185,3876,-106.294736842105,117,0,2291,2535,473,4,4,4,4,4,4,4,4,4,4,4,4,4,4,4,4
"44",4380,305.610526315789,4204,200.989473684211,184.473684210526,3744,-158.2,3667,4471,170.115789473684,-32.4526315789474,4201,3879,-89.8842105263158,118,0,2291,2531,587,4,4,4,4,4,4,4,4,4,4,4,4,4,4,4,4
"45",4395,320.484210526316,4209,211.252631578947,190.115789473684,3762,-149.989473684211,3688,4461,180.368421052632,-34.5052631578947,4218,3882,-74.5052631578947,119,0,2287,2531,421,4,4,4,4,4,4,4,4,4,4,4,4,4,4,4,4
"46",4402,326.126315789474,4208,216.894736842105,189.6,3769,-142.305263157895,3699,4463,184.473684210526,-35.5263157894737,4225,3879,-67.8315789473684,120,0,2295,2531,531,4,4,4,4,4,4,4,4,4,4,4,4,4,4,4,4
"47",4401,337.915789473684,4207,228.168421052632,187.547368421053,3779,-141.273684210526,3713,4474,195.757894736842,-35.5263157894737,4233,3878,-56.5473684210526,121,0,2291,2531,473,4,4,4,4,4,4,4,4,4,4,4,4,4,4,4,4
"48",4399,-343.221052631579,4215,236.894736842105,194.726315789474,3786,-135.631578947368,3723,4477,206.010526315789,-33.4736842105263,4244,3887,-48.3473684210526,122,0,2291,2527,587,4,4,4,4,4,4,4,4,4,4,4,4,4,4,4,4
"49",4391,-344.757894736842,4219,239.968421052632,197.294736842105,3783,-126.4,3721,4475,202.936842105263,-27.8315789473684,4244,3893,-50.9157894736842,123,0,2291,2531,421,4,4,4,4,4,4,4,4,4,4,4,4,4,4,4,4
"50",4373,338.936842105263,4213,235.863157894737,191.652631578947,3774,-125.894736842105,3713,4477,198.831578947368,-26.2947368421053,4236,3893,-59.1157894736842,124,0,2295,2527,531,4,4,4,4,4,4,4,4,4,4,4,4,4,4,4,4
"51",4359,333.810526315789,4213,226.126315789474,191.652631578947,3762,-128.968421052632,3696,4481,192.168421052632,-27.8315789473684,4225,3894,-75.0105263157895,125,0,2291,2527,473,4,4,4,4,4,4,4,4,4,4,4,4,4,4,4,4
"52",4353,326.631578947368,4214,218.431578947368,194.221052631579,3747,-129.484210526316,3682,4483,178.315789473684,-25.2736842105263,4212,3895,-90.9157894736842,126,0,2295,2531,587,4,4,4,4,4,4,4,4,4,4,4,4,4,4,4,4
"53",4348,321.505263157895,4213,216.894736842105,191.652631578947,3746,-127.947368421053,3684,4483,172.684210526316,-18.6,4208,3895,-94.5052631578947,127,0,2295,2527,421,4,4,4,4,4,4,4,4,4,4,4,4,4,4,4,4
"54",4339,334.326315789474,4216,223.042105263158,195.242105263158,3758,-121.789473684211,3696,4479,180.368421052632,-18.6,4218,3895,-89.3684210526316,128,0,2291,2535,531,4,4,4,4,4,4,4,4,4,4,4,4,4,4,4,4
"55",4332,333.305263157895,4217,220.484210526316,198.315789473684,3756,-115.126315789474,3698,4473,178.315789473684,-26.8105263157895,4218,3897,-90.9157894736842,0,0,2295,2527,414,4,4,4,4,4,4,4,4,4,4,4,4,4,4,4,4
"56",4326,319.968421052632,4214,210.221052631579,190.631578947368,3739,-116.663157894737,3690,4462,161.4,-31.9368421052632,4201,3896,-104.242105263158,1,0,2291,2531,457,4,4,4,4,4,4,4,4,4,4,4,4,4,4,4,4
"57",4325,321.505263157895,4210,210.221052631579,186.526315789474,3738,-120.252631578947,3690,4457,158.315789473684,-33.4736842105263,4194,3889,-111.421052631579,2,0,2291,2531,518,4,4,4,4,4,4,4,4,4,4,4,4,4,4,4,4
"58",4326,319.968421052632,4202,209.2,182.936842105263,3737,-119.736842105263,3690,4458,159.863157894737,-40.6526315789474,4195,3878,-115.010526315789,3,0,2291,2531,499,4,4,4,4,4,4,4,4,4,4,4,4,4,4,4,4
"59",4315,319.968421052632,4202,208.168421052632,176.273684210526,3733,-122.810526315789,3686,4457,159.863157894737,-43.2210526315789,4197,3875,-116.042105263158,4,0,2299,2531,522,4,4,4,4,4,4,4,4,4,4,4,4,4,4,4,4
"60",4307,328.168421052632,4210,214.842105263158,182.936842105263,3739,-120.252631578947,3693,4461,169.084210526316,-33.9894736842105,4205,3883,-107.315789473684,5,0,2311,2551,492,4,4,4,4,4,4,4,4,4,4,4,4,4,4,4,4
"61",4302,327.663157894737,4211,212.789473684211,184.473684210526,3734,-117.168421052632,3689,4465,168.063157894737,-30.9157894736842,4198,3882,-109.368421052632,6,0,2295,2535,532,4,4,4,4,4,4,4,4,4,4,4,4,4,4,4,4
"62",4286,313.305263157895,4207,193.810526315789,171.652631578947,3713,-126.4,3663,4463,150.115789473684,-33.4736842105263,4177,3878,-134.505263157895,7,0,2291,2531,514,4,4,4,4,4,4,4,4,4,4,4,4,4,4,4,4
"63",4277,303.042105263158,4211,177.915789473684,171.652631578947,3698,-131.536842105263,3647,4463,132.168421052632,-31.4210526315789,4164,3885,-151.421052631579,8,0,2291,2531,531,4,4,4,4,4,4,4,4,4,4,4,4,4,4,4,4
"64",4281,304.578947368421,4218,180.989473684211,180.368421052632,3696,-122.810526315789,3647,4461,123.957894736842,-29.8842105263158,4158,3889,-150.915789473684,9,0,2291,2527,540,4,4,4,4,4,4,4,4,4,4,4,4,4,4,4,4
"65",4283,293.305263157895,4212,169.715789473684,174.221052631579,3682,-118.2,3638,4454,106.526315789474,-34.5052631578947,4139,3883,-168.347368421053,10,0,2291,2523,586,4,4,4,4,4,4,4,4,4,4,4,4,4,4,4,4
"66",4277,279.452631578947,4204,149.715789473684,168.063157894737,3663,-121.789473684211,3628,4450,88.5789473684211,-39.6315789473684,4118,3877,-192.957894736842,11,0,2291,2523,421,4,4,4,4,4,4,4,4,4,4,4,4,4,4,4,4
"67",4265,284.578947368421,4207,154.842105263158,170.115789473684,3666,-121.273684210526,3632,4446,94.2210526315789,-42.7052631578947,4123,3876,-188.347368421053,12,0,2291,2523,531,4,4,4,4,4,4,4,4,4,4,4,4,4,4,4,4
"68",4259,291.252631578947,4205,162.536842105263,171.652631578947,3675,-113.578947368421,3640,4443,104.989473684211,-44.7578947368421,4134,3877,-173.989473684211,13,0,2291,2523,469,4,4,4,4,4,4,4,4,4,4,4,4,4,4,4,4
"69",4268,299.452631578947,4205,168.684210526316,175.242105263158,3684,-110.505263157895,3649,4446,111.136842105263,-43.7263157894737,4143,3878,-165.273684210526,14,0,2291,2531,586,4,4,4,4,4,4,4,4,4,4,4,4,4,4,4,4
"70",4272,296.894736842105,4211,169.2,180.368421052632,3679,-112.557894736842,3647,4448,112.684210526316,-42.1894736842105,4145,3878,-167.831578947368,15,0,2291,2531,421,4,4,4,4,4,4,4,4,4,4,4,4,4,4,4,4
"71",4268,293.810526315789,4218,169.715789473684,187.547368421053,3674,-101.789473684211,3642,4448,114.726315789474,-37.5789473684211,4144,3884,-173.473684210526,16,0,2291,2531,0,4,4,4,4,4,4,4,4,4,4,4,4,4,4,4,4
"72",4288,320.484210526316,4226,194.842105263158,204.989473684211,3707,-73.5789473684211,3668,4470,140.884210526316,-21.6842105263158,4173,3906,-145.778947368421,17,0,2291,2535,0,4,4,4,4,4,4,4,4,4,4,4,4,4,4,4,4
"73",4313,344.578947368421,4235,220.989473684211,220.884210526316,3739,-56.1473684210526,3699,4497,171.652631578947,-7.31578947368421,4206,3919,-111.421052631579,18,0,2295,2539,0,4,4,4,4,4,4,4,4,4,4,4,4,4,4,4,4
"74",4311,343.042105263158,4237,220.989473684211,218.315789473684,3735,-60.7684210526316,3701,4488,170.631578947368,-11.9368421052632,4202,3913,-115.010526315789,19,0,2299,2531,0,4,4,4,4,4,4,4,4,4,4,4,4,4,4,4,4
"75",4305,335.347368421053,4229,209.2,213.705263157895,3727,-64.3578947368421,3697,4471,154.726315789474,-20.1368421052632,4187,3908,-129.368421052632,20,0,2295,2539,0,4,4,4,4,4,4,4,4,4,4,4,4,4,4,4,4
"76",4310,341.505263157895,4233,213.305263157895,217.294736842105,3738,-60.2526315789474,3709,4482,160.368421052632,-13.9894736842105,4198,3914,-120.136842105263,21,0,2295,2531,0,4,4,4,4,4,4,4,4,4,4,4,4,4,4,4,4
"77",4305,-341.168421052632,4241,223.557894736842,216.273684210526,3744,-57.1684210526316,3711,4495,166.526315789474,-8.86315789473684,4208,3916,-110.4,22,0,2291,2531,0,4,4,4,4,4,4,4,4,4,4,4,4,4,4,4,4
"78",4292,336.894736842105,4236,211.757894736842,208.578947368421,3728,-55.1263157894737,3695,4488,152.168421052632,-15.5263157894737,4188,3912,-125.273684210526,23,0,2295,2531,0,4,4,4,4,4,4,4,4,4,4,4,4,4,4,4,4
"79",4296,340.484210526316,4236,212.789473684211,212.168421052632,3734,-52.5578947368421,3697,4487,156.273684210526,-13.9894736842105,4186,3914,-124.242105263158,24,0,2291,2535,0,4,4,4,4,4,4,4,4,4,4,4,4,4,4,4,4
"80",4322,-324.242105263158,4248,238.431578947368,232.168421052632,3766,-39.2210526315789,3730,4509,190.115789473684,-0.652631578947368,4221,3928,-88.3473684210526,25,0,2295,2531,0,4,4,4,4,4,4,4,4,4,4,4,4,4,4,4,4
"81",4344,-305.778947368421,4253,254.326315789474,246.526315789474,3786,-21.7894736842105,3754,4519,210.115789473684,4.98947368421053,4247,3938,-64.2421052631579,26,0,2295,2531,0,4,4,4,4,4,4,4,4,4,4,4,4,4,4,4,4
"82",4351,-296.547368421053,4255,263.042105263158,248.578947368421,3794,-14.0947368421053,3763,4512,215.757894736842,5.49473684210526,4255,3939,-58.6,27,0,2295,2531,0,4,4,4,4,4,4,4,4,4,4,4,4,4,4,4,4
"83",4360,-289.368421052632,4261,275.347368421053,251.136842105263,3806,-4.86315789473684,3771,4517,227.547368421053,12.1684210526316,4267,3942,-47.8315789473684,28,0,2295,2527,0,4,4,4,4,4,4,4,4,4,4,4,4,4,4,4,4
"84",4356,-282.705263157895,4263,284.073684210526,251.136842105263,3810,2.31578947368421,3776,4526,233.705263157895,15.7578947368421,4273,3946,-42.7052631578947,29,0,2295,2535,0,4,4,4,4,4,4,4,4,4,4,4,4,4,4,4,4
"85",4343,-279.115789473684,4257,284.073684210526,246.010526315789,3812,0.263157894736842,3780,4522,232.684210526316,12.6842105263158,4274,3946,-43.2210526315789,30,0,2295,2531,0,4,4,4,4,4,4,4,4,4,4,4,4,4,4,4,4
"86",4342,-268.347368421053,4259,291.252631578947,247.547368421053,3827,-0.768421052631579,3795,4523,242.936842105263,12.6842105263158,4285,3950,-29.8842105263158,31,0,2295,2535,0,4,4,4,4,4,4,4,4,4,4,4,4,4,4,4,4
"87",4346,-259.115789473684,4265,299.968421052632,255.757894736842,3836,2.83157894736842,3807,4536,252.684210526316,18.3157894736842,4291,3959,-21.1684210526316,32,0,2295,2535,0,4,4,4,4,4,4,4,4,4,4,4,4,4,4,4,4
"88",4344,-267.315789473684,4265,292.789473684211,256.778947368421,3825,6.42105263157895,3802,4541,245.494736842105,25.4947368421053,4283,3961,-30.4,33,0,2291,2535,0,4,4,4,4,4,4,4,4,4,4,4,4,4,4,4,4
"89",4340,-269.884210526316,4264,290.221052631579,251.136842105263,3821,10.5157894736842,3801,4535,240.368421052632,22.4210526315789,4278,3958,-32.9578947368421,34,0,2299,2535,0,4,4,4,4,4,4,4,4,4,4,4,4,4,4,4,4
"90",4337,-271.936842105263,4263,289.2,246.526315789474,3819,12.5684210526316,3804,4535,238.831578947368,14.7263157894737,4273,3955,-34.5052631578947,35,0,2295,2535,0,4,4,4,4,4,4,4,4,4,4,4,4,4,4,4,4
"91",4333,-282.705263157895,4263,281.505263157895,243.957894736842,3805,11.5473684210526,3791,4536,228.063157894737,16.2736842105263,4258,3948,-49.3684210526316,36,0,2299,2531,0,4,4,4,4,4,4,4,4,4,4,4,4,4,4,4,4
"92",4331,-282.705263157895,4262,281.505263157895,242.421052631579,3800,16.1578947368421,3788,4527,226.526315789474,19.3473684210526,4256,3945,-51.4210526315789,37,0,2299,2527,0,4,4,4,4,4,4,4,4,4,4,4,4,4,4,4,4
"93",4334,-275.010526315789,4263,283.042105263158,240.884210526316,3810,17.6947368421053,3798,4526,232.684210526316,15.2421052631579,4262,3948,-44.2421052631579,38,0,2303,2539,0,4,4,4,4,4,4,4,4,4,4,4,4,4,4,4,4
"94",4332,-269.884210526316,4265,287.663157894737,240.884210526316,3815,14.6210526315789,3804,4534,233.705263157895,15.7578947368421,4263,3951,-46.2947368421053,39,0,2315,2547,0,4,4,4,4,4,4,4,4,4,4,4,4,4,4,4,4
"95",4327,-271.421052631579,4263,292.789473684211,247.042105263158,3816,21.8,3810,4539,240.884210526316,20.3684210526316,4267,3955,-38.6,40,0,2295,2531,0,4,4,4,4,4,4,4,4,4,4,4,4,4,4,4,4
"96",4325,-262.705263157895,4265,302.536842105263,250.631578947368,3829,31.5473684210526,3827,4534,255.757894736842,17.2947368421053,4282,3955,-21.1684210526316,41,0,2295,2531,0,4,4,4,4,4,4,4,4,4,4,4,4,4,4,4,4
"97",4331,-245.778947368421,4267,311.757894736842,249.6,3841,32.5684210526316,3839,4527,260.884210526316,14.7263157894737,4291,3953,-11.9368421052632,42,0,2291,2539,0,4,4,4,4,4,4,4,4,4,4,4,4,4,4,4,4
"98",4340,-253.473684210526,4265,302.021052631579,254.726315789474,3827,31.0315789473684,3828,4525,246.010526315789,17.8105263157895,4276,3956,-21.6842105263158,43,0,2299,2535,0,4,4,4,4,4,4,4,4,4,4,4,4,4,4,4,4
"99",4334,-268.863157894737,4269,288.168421052632,260.884210526316,3805,33.0842105263158,3806,4522,226.526315789474,17.2947368421053,4256,3960,-42.7052631578947,44,0,2295,2535,0,4,4,4,4,4,4,4,4,4,4,4,4,4,4,4,4
"100",4329,-273.989473684211,4272,280.484210526316,259.347368421053,3794,35.6421052631579,3794,4523,219.863157894737,13.7052631578947,4246,3955,-55.0105263157895,45,0,2295,2535,0,4,4,4,4,4,4,4,4,4,4,4,4,4,4,4,4
"101",4337,-273.989473684211,4268,279.452631578947,257.810526315789,3795,34.6210526315789,3801,4526,221.905263157895,15.2421052631579,4244,3954,-52.4526315789474,46,0,2295,2535,0,4,4,4,4,4,4,4,4,4,4,4,4,4,4,4,4
"102",4338,-266.810526315789,4270,288.684210526316,260.368421052632,3805,34.1052631578947,3818,4526,227.547368421053,18.3157894736842,4257,3960,-42.1894736842105,47,0,2295,2535,0,4,4,4,4,4,4,4,4,4,4,4,4,4,4,4,4
"103",4327,-267.831578947368,4271,287.147368421053,256.273684210526,3801,35.1368421052632,3821,4523,222.936842105263,16.2736842105263,4259,3955,-46.2947368421053,48,0,2291,2535,0,4,4,4,4,4,4,4,4,4,4,4,4,4,4,4,4
"104",4304,-280.136842105263,4263,273.810526315789,243.957894736842,3782,32.0526315789474,3802,4517,204.473684210526,8.57894736842105,4233,3944,-64.2421052631579,49,0,2299,2531,0,4,4,4,4,4,4,4,4,4,4,4,4,4,4,4,4
"105",4284,-297.063157894737,4258,258.431578947368,237.294736842105,3766,25.9052631578947,3782,4511,185.494736842105,1.4,4211,3939,-81.1684210526316,50,0,2291,2535,0,4,4,4,4,4,4,4,4,4,4,4,4,4,4,4,4
"106",4284,-301.684210526316,4261,252.789473684211,243.452631578947,3762,27.4421052631579,3782,4506,180.368421052632,4.47368421052632,4211,3943,-86.8105263157895,51,0,2295,2535,0,4,4,4,4,4,4,4,4,4,4,4,4,4,4,4,4
"107",4290,-292.957894736842,4263,260.484210526316,250.631578947368,3767,35.1368421052632,3788,4513,186.526315789474,13.7052631578947,4215,3949,-80.6526315789474,52,0,2295,2531,0,4,4,4,4,4,4,4,4,4,4,4,4,4,4,4,4
"108",4282,-297.578947368421,4262,260.484210526316,251.136842105263,3765,37.1894736842105,3783,4520,181.4,15.2421052631579,4208,3952,-83.7263157894737,53,0,2295,2535,0,4,4,4,4,4,4,4,4,4,4,4,4,4,4,4,4
"109",4271,-299.631578947368,4261,264.073684210526,246.526315789474,3765,32.5684210526316,3781,4521,183.957894736842,12.1684210526316,4211,3950,-81.1684210526316,54,0,2291,2535,0,4,4,4,4,4,4,4,4,4,4,4,4,4,4,4,4
"110",4285,-287.315789473684,4261,277.4,243.452631578947,3783,32.0526315789474,3801,4523,208.063157894737,13.1894736842105,4234,3951,-59.1157894736842,55,0,2299,2531,0,4,4,4,4,4,4,4,4,4,4,4,4,4,4,4,4
"111",4302,-275.526315789474,4264,290.221052631579,244.989473684211,3799,42.3157894736842,3819,4527,217.294736842105,14.7263157894737,4250,3956,-43.2210526315789,56,0,2295,2527,0,4,4,4,4,4,4,4,4,4,4,4,4,4,4,4,4
"112",4287,-279.115789473684,4265,292.273684210526,243.957894736842,3795,41.2842105263158,3817,4524,206.526315789474,12.1684210526316,4242,3956,-48.3473684210526,57,0,2295,2535,0,4,4,4,4,4,4,4,4,4,4,4,4,4,4,4,4
"113",4268,-283.726315789474,4260,287.663157894737,240.368421052632,3788,33.0842105263158,3814,4518,206.526315789474,10.6315789473684,4233,3954,-53.9894736842105,58,0,2295,2527,0,4,4,4,4,4,4,4,4,4,4,4,4,4,4,4,4
"114",4272,-267.831578947368,4263,300.484210526316,244.989473684211,3802,37.1894736842105,3829,4524,224.473684210526,12.6842105263158,4248,3957,-42.1894736842105,59,0,2295,2527,0,4,4,4,4,4,4,4,4,4,4,4,4,4,4,4,4
"115",4282,-261.684210526316,4268,312.789473684211,256.778947368421,3813,49.4947368421053,3844,4542,236.778947368421,18.3157894736842,4265,3961,-29.8842105263158,60,0,2295,2527,0,4,4,4,4,4,4,4,4,4,4,4,4,4,4,4,4
"116",4285,-263.221052631579,4270,314.842105263158,264.473684210526,3812,56.6736842105263,3845,4545,240.368421052632,23.9578947368421,4265,3967,-28.3473684210526,61,0,2295,2531,0,4,4,4,4,4,4,4,4,4,4,4,4,4,4,4,4
"117",4298,-252.452631578947,4274,320.484210526316,270.631578947368,3819,62.3157894736842,3852,4528,240.368421052632,26.0105263157895,4265,3974,-28.3473684210526,62,0,2295,2527,0,4,4,4,4,4,4,4,4,4,4,4,4,4,4,4,4
"118",4324,-253.989473684211,4279,317.915789473684,283.452631578947,3822,71.5473684210526,3861,4529,231.652631578947,29.0842105263158,4265,3975,-31.4210526315789,63,0,2291,2535,0,4,4,4,4,4,4,4,4,4,4,4,4,4,4,4,4
"119",4333,-260.136842105263,4283,315.347368421053,286.010526315789,3817,71.5473684210526,3856,4538,226.526315789474,29.0842105263158,4259,3972,-38.0947368421053,64,0,2295,2531,414,4,4,4,4,4,4,4,4,4,4,4,4,4,4,4,4
"120",4333,-264.757894736842,4279,312.273684210526,277.810526315789,3813,66.4210526315789,3852,4527,224.473684210526,19.8631578947368,4251,3970,-47.3157894736842,65,0,2291,2531,448,4,4,4,4,4,4,4,4,4,4,4,4,4,4,4,4
"121",4338,-264.242105263158,4278,308.684210526316,277.810526315789,3809,67.4421052631579,3854,4523,218.831578947368,19.3473684210526,4249,3970,-50.4,66,0,2295,2535,518,4,4,4,4,4,4,4,4,4,4,4,4,4,4,4,4
"122",4343,-247.315789473684,4282,325.094736842105,284.989473684211,3824,74.1052631578947,3873,4537,233.705263157895,29.0842105263158,4268,3973,-29.3684210526316,67,0,2299,2531,499,4,4,4,4,4,4,4,4,4,4,4,4,4,4,4,4
"123",4349,-231.421052631579,4283,-344.242105263158,284.473684210526,3847,75.6421052631579,3895,4543,258.315789473684,30.6315789473684,4292,3975,-1.16842105263158,68,0,2295,2535,522,4,4,4,4,4,4,4,4,4,4,4,4,4,4,4,4
"124",4346,-233.473684210526,4282,-343.726315789474,277.810526315789,3849,70.5157894736842,3873,4535,259.347368421053,25.4947368421053,4296,3974,6.01052631578947,69,0,2295,2535,492,4,4,4,4,4,4,4,4,4,4,4,4,4,4,4,4
"125",4335,-246.294736842105,4280,332.789473684211,278.315789473684,3833,70.0105263157895,3825,4539,247.547368421053,26.5263157894737,4284,3975,-1.16842105263158,70,0,2295,2539,532,4,4,4,4,4,4,4,4,4,4,4,4,4,4,4,4
"126",4324,-253.473684210526,4278,323.042105263158,280.368421052632,3820,73.6,3805,4539,239.863157894737,28.5789473684211,4272,3977,-12.9578947368421,71,0,2299,2535,509,4,4,4,4,4,4,4,4,4,4,4,4,4,4,4,4
"127",4314,-252.452631578947,4275,322.021052631579,277.810526315789,3818,74.1052631578947,3809,4524,235.242105263158,26.0105263157895,4269,3976,-20.6526315789474,72,0,2291,2535,528,4,4,4,4,4,4,4,4,4,4,4,4,4,4,4,4
"128",4313,-253.473684210526,4275,325.094736842105,280.368421052632,3823,73.0842105263158,3812,4524,235.757894736842,26.5263157894737,4274,3975,-15.0105263157895,73,0,2307,2531,540,4,4,4,4,4,4,4,4,4,4,4,4,4,4,4,4
"129",4313,-251.421052631579,4279,331.757894736842,283.452631578947,3828,70.0105263157895,3820,4532,243.452631578947,28.5789473684211,4277,3977,-5.77894736842105,74,0,2295,2527,583,4,4,4,4,4,4,4,4,4,4,4,4,4,4,4,4
"130",4309,-254.505263157895,4278,326.126315789474,282.936842105263,3821,67.4421052631579,3821,4531,239.863157894737,30.1157894736842,4268,3984,-11.9368421052632,75,0,2295,2527,420,4,4,4,4,4,4,4,4,4,4,4,4,4,4,4,4
"131",4310,-263.221052631579,4278,314.326315789474,284.989473684211,3810,71.5473684210526,3809,4529,223.957894736842,30.6315789473684,4254,3989,-29.8842105263158,76,0,2295,2523,529,4,4,4,4,4,4,4,4,4,4,4,4,4,4,4,4
"132",4314,-268.863157894737,4286,311.252631578947,289.6,3805,76.1578947368421,3805,4530,218.315789473684,30.6315789473684,4253,3984,-39.1157894736842,77,0,2299,2527,468,4,4,4,4,4,4,4,4,4,4,4,4,4,4,4,4
"133",4311,-282.18947368421,4289,297.915789473684,288.063157894737,3788,76.6736842105263,3794,4526,209.084210526316,28.5789473684211,4241,3977,-50.9157894736842,78,0,2295,2527,583,4,4,4,4,4,4,4,4,4,4,4,4,4,4,4,4
"134",4303,-293.473684210526,4284,283.557894736842,286.526315789474,3774,73.6,3777,4522,190.631578947368,27.0421052631579,4218,3983,-71.4210526315789,79,0,2291,2531,420,4,4,4,4,4,4,4,4,4,4,4,4,4,4,4,4
"135",4297,-293.473684210526,4280,284.578947368421,288.578947368421,3778,68.4631578947368,3778,4525,187.547368421053,28.5789473684211,4218,3987,-75.0105263157895,80,0,2299,2531,529,4,4,4,4,4,4,4,4,4,4,4,4,4,4,4,4
"136",4287,-285.778947368421,4278,296.894736842105,280.884210526316,3786,60.2631578947368,3795,4523,198.831578947368,29.0842105263158,4233,3978,-60.1368421052632,81,0,2287,2539,468,4,4,4,4,4,4,4,4,4,4,4,4,4,4,4,4
"137",4276,-276.547368421053,4281,306.126315789474,274.726315789474,3795,59.2315789473684,3804,4521,209.084210526316,29.6,4239,3977,-50.9157894736842,82,0,2295,2539,583,4,4,4,4,4,4,4,4,4,4,4,4,4,4,4,4
"138",4276,-284.242105263158,4284,297.4,276.273684210526,3793,60.2631578947368,3793,4527,208.063157894737,29.6,4231,3982,-59.1157894736842,83,0,2295,2535,420,4,4,4,4,4,4,4,4,4,4,4,4,4,4,4,4
"139",4276,-287.315789473684,4283,294.326315789474,272.684210526316,3786,51.0315789473684,3789,4518,201.4,27.0421052631579,4230,3976,-62.1894736842105,84,0,2295,2535,529,4,4,4,4,4,4,4,4,4,4,4,4,4,4,4,4
"140",4281,-280.652631578947,4278,301.505263157895,276.778947368421,3790,46.9263157894737,3799,4514,203.452631578947,28.0631578947368,4238,3976,-51.9368421052632,85,0,2291,2531,468,4,4,4,4,4,4,4,4,4,4,4,4,4,4,4,4
"141",4280,-280.136842105263,4282,303.042105263158,285.494736842105,3793,50.5157894736842,3802,4526,208.063157894737,30.6315789473684,4240,3983,-50.9157894736842,86,0,2295,2535,583,4,4,4,4,4,4,4,4,4,4,4,4,4,4,4,4
"142",4269,-284.242105263158,4282,300.484210526316,280.368421052632,3789,47.9578947368421,3797,4531,206.526315789474,30.1157894736842,4236,3981,-53.9894736842105,87,0,2295,2531,420,4,4,4,4,4,4,4,4,4,4,4,4,4,4,4,4
"143",4267,-284.757894736842,4278,297.915789473684,272.168421052632,3783,44.3684210526316,3799,4523,199.863157894737,29.6,4233,3974,-52.9578947368421,88,0,2295,2531,529,4,4,4,4,4,4,4,4,4,4,4,4,4,4,4,4
"144",4273,-284.757894736842,4281,296.378947368421,274.221052631579,3784,44.8736842105263,3798,4516,195.757894736842,26.5263157894737,4229,3975,-58.6,89,0,2295,2531,468,4,4,4,4,4,4,4,4,4,4,4,4,4,4,4,4
"145",4277,-298.094736842105,4280,286.631578947368,274.726315789474,3779,43.3368421052632,3792,4510,187.547368421053,17.2947368421053,4217,3969,-70.9157894736842,90,0,2295,2531,583,4,4,4,4,4,4,4,4,4,4,4,4,4,4,4,4
"146",4286,-299.631578947368,4277,285.610526315789,271.136842105263,3776,40.7789473684211,3791,4504,179.863157894737,11.1368421052632,4212,3963,-73.9894736842105,91,0,2295,2531,420,4,4,4,4,4,4,4,4,4,4,4,4,4,4,4,4
"147",4293,-280.652631578947,4277,303.042105263158,275.242105263158,3792,44.3684210526316,3806,4507,194.726315789474,19.8631578947368,4228,3968,-59.1157894736842,92,0,2299,2527,529,4,4,4,4,4,4,4,4,4,4,4,4,4,4,4,4
"148",4289,-278.6,4280,307.147368421053,279.347368421053,3802,48.4631578947368,3815,4508,208.063157894737,29.6,4237,3974,-50.4,93,0,2291,2535,468,4,4,4,4,4,4,4,4,4,4,4,4,4,4,4,4
"149",4278,-287.831578947368,4283,298.431578947368,276.273684210526,3795,47.4421052631579,3804,4503,197.294736842105,26.0105263157895,4227,3972,-61.6842105263158,94,0,2295,2535,583,4,4,4,4,4,4,4,4,4,4,4,4,4,4,4,4
"150",4273,-292.957894736842,4281,292.273684210526,274.726315789474,3786,46.4210526315789,3792,4507,184.989473684211,17.8105263157895,4219,3970,-75.5263157894737,95,0,2295,2531,420,4,4,4,4,4,4,4,4,4,4,4,4,4,4,4,4
"151",4267,-289.884210526316,4277,295.863157894737,276.778947368421,3788,44.3684210526316,3793,4509,191.652631578947,17.8105263157895,4226,3969,-71.9368421052632,96,0,2295,2539,529,4,4,4,4,4,4,4,4,4,4,4,4,4,4,4,4
"152",4257,-282.705263157895,4281,304.073684210526,277.294736842105,3793,41.2842105263158,3798,4507,200.368421052632,23.9578947368421,4235,3969,-59.6315789473684,97,0,2295,2539,468,4,4,4,4,4,4,4,4,4,4,4,4,4,4,4,4
"153",4252,-287.315789473684,4283,299.968421052632,276.273684210526,3789,45.3894736842105,3795,4515,196.273684210526,30.6315789473684,4229,3973,-62.1894736842105,98,0,2311,2551,583,4,4,4,4,4,4,4,4,4,4,4,4,4,4,4,4
"154",4242,-296.547368421053,4282,291.757894736842,270.631578947368,3776,44.8736842105263,3787,4519,188.063157894737,25.4947368421053,4217,3969,-76.5473684210526,99,0,2299,2535,420,4,4,4,4,4,4,4,4,4,4,4,4,4,4,4,4
"155",4236,-300.136842105263,4276,289.715789473684,267.042105263158,3772,35.6421052631579,3785,4513,184.989473684211,18.3157894736842,4215,3960,-79.1157894736842,100,0,2295,2531,529,4,4,4,4,4,4,4,4,4,4,4,4,4,4,4,4
"156",4249,-290.4,4279,302.021052631579,273.705263157895,3787,40.7789473684211,3796,4514,199.347368421053,23.9578947368421,4228,3966,-62.7052631578947,101,0,2299,2527,468,4,4,4,4,4,4,4,4,4,4,4,4,4,4,4,4
"157",4263,-275.010526315789,4289,316.378947368421,281.4,3803,52.5684210526316,3811,4524,222.936842105263,31.6526315789474,4243,3978,-46.2947368421053,102,0,2291,2531,583,4,4,4,4,4,4,4,4,4,4,4,4,4,4,4,4
"158",4255,-286.294736842105,4285,303.042105263158,275.757894736842,3788,41.2842105263158,3799,4524,214.726315789474,27.5473684210526,4228,3973,-62.1894736842105,103,0,2295,2535,420,4,4,4,4,4,4,4,4,4,4,4,4,4,4,4,4
"159",4243,-302.705263157895,4278,285.094736842105,269.6,3766,26.9263157894737,3772,4513,189.084210526316,23.4526315789474,4202,3966,-86.2947368421053,104,0,2291,2535,529,4,4,4,4,4,4,4,4,4,4,4,4,4,4,4,4
"160",4250,-304.242105263158,4286,284.578947368421,273.705263157895,3769,39.2315789473684,3767,4515,187.042105263158,27.0421052631579,4204,3970,-84.7578947368421,105,0,2291,2543,468,4,4,4,4,4,4,4,4,4,4,4,4,4,4,4,4
"161",4252,-300.136842105263,4294,288.684210526316,277.294736842105,3778,48.4631578947368,3774,4523,198.315789473684,30.1157894736842,4212,3976,-81.1684210526316,106,0,2291,2539,583,4,4,4,4,4,4,4,4,4,4,4,4,4,4,4,4
"162",4240,-300.652631578947,4291,289.715789473684,272.684210526316,3776,36.6736842105263,3772,4524,200.884210526316,30.1157894736842,4208,3977,-84.7578947368421,107,0,2291,2543,420,4,4,4,4,4,4,4,4,4,4,4,4,4,4,4,4
"163",4236,-302.18947368421,4288,290.736842105263,270.115789473684,3778,34.6210526315789,3775,4530,204.989473684211,29.6,4213,3973,-76.5473684210526,108,0,2291,2539,529,4,4,4,4,4,4,4,4,4,4,4,4,4,4,4,4
"164",4246,-281.168421052632,4292,312.273684210526,279.863157894737,3801,45.3894736842105,3803,4536,224.989473684211,31.1368421052632,4239,3977,-50.4,109,0,2291,2543,468,4,4,4,4,4,4,4,4,4,4,4,4,4,4,4,4
"165",4262,-263.221052631579,4272,330.736842105263,289.084210526316,3823,50.0105263157895,3827,4542,245.494736842105,35.7578947368421,4259,3985,-32.4526315789474,110,0,2295,2539,583,4,4,4,4,4,4,4,4,4,4,4,4,4,4,4,4
"166",4265,-263.221052631579,4240,333.305263157895,289.084210526316,3828,54.1052631578947,3832,4547,249.084210526316,38.8315789473684,4261,3982,-31.9368421052632,111,0,2291,2543,420,4,4,4,4,4,4,4,4,4,4,4,4,4,4,4,4
"167",4263,-255.526315789474,4225,342.021052631579,287.547368421053,3837,58.2105263157895,3844,4548,252.168421052632,37.8105263157895,4270,3976,-20.6526315789474,112,0,2295,2539,529,4,4,4,4,4,4,4,4,4,4,4,4,4,4,4,4
"168",4267,-253.989473684211,4219,341.505263157895,283.957894736842,3836,53.0842105263158,3852,4541,250.115789473684,33.7052631578947,4272,3974,-15.0105263157895,113,0,2291,2535,468,4,4,4,4,4,4,4,4,4,4,4,4,4,4,4,4
"169",4261,-263.221052631579,4214,331.252631578947,277.810526315789,3824,44.8736842105263,3844,4537,241.4,30.1157894736842,4258,3973,-21.6842105263158,114,0,2295,2539,583,4,4,4,4,4,4,4,4,4,4,4,4,4,4,4,4
"170",4256,-264.757894736842,4209,332.789473684211,287.042105263158,3827,49.4947368421053,3844,4541,244.473684210526,32.1684210526316,4258,3976,-17.5789473684211,115,0,2295,2535,420,4,4,4,4,4,4,4,4,4,4,4,4,4,4,4,4
"171",4255,-265.273684210526,4210,330.736842105263,306.010526315789,3821,56.6736842105263,3838,4538,239.863157894737,36.7789473684211,4258,3982,-25.7789473684211,116,0,2295,2535,529,4,4,4,4,4,4,4,4,4,4,4,4,4,4,4,4
"172",4249,-280.136842105263,4208,311.757894736842,292.684210526316,3791,53.6,3815,4536,219.347368421053,36.7789473684211,4234,3983,-53.9894736842105,117,0,2295,2535,468,4,4,4,4,4,4,4,4,4,4,4,4,4,4,4,4
"173",4253,-296.042105263158,4204,293.810526315789,280.368421052632,3771,51.5473684210526,3803,4538,206.010526315789,33.1894736842105,4211,3980,-67.3157894736842,118,0,2295,2539,583,4,4,4,4,4,4,4,4,4,4,4,4,4,4,4,4
"174",4253,-297.578947368421,4207,289.2,318.315789473684,3769,52.5684210526316,3802,4535,196.273684210526,33.7052631578947,4202,3982,-75.0105263157895,119,0,2295,2531,420,4,4,4,4,4,4,4,4,4,4,4,4,4,4,4,4
"175",4271,-271.421052631579,4209,314.326315789474,252.684210526316,3801,61.2842105263158,3836,4555,224.989473684211,39.8631578947368,4234,3985,-47.8315789473684,120,0,2291,2535,529,4,4,4,4,4,4,4,4,4,4,4,4,4,4,4,4
"176",4346,-188.347368421053,4200,-286.810526315789,13.1894736842105,3908,85.3894736842105,3940,4604,332.168421052632,43.4526315789474,4345,3979,63.9578947368421,121,0,2295,2531,468,4,4,4,4,4,4,4,4,4,4,4,4,4,4,4,4
"177",4418,-108.863157894737,4192,-199.115789473684,-142.189473684211,4017,109.494736842105,4043,4636,-254.610526315789,44.4736842105263,4456,3975,178.831578947368,122,0,2291,2531,583,4,4,4,4,4,4,4,4,4,4,4,4,4,4,4,4
"178",4433,-104.757894736842,4198,-194.505263157895,-99.6315789473684,4027,114.105263157895,4054,4632,-245.378947368421,44.4736842105263,4470,3981,194.221052631579,123,0,2291,2535,420,4,4,4,4,4,4,4,4,4,4,4,4,4,4,4,4
"179",4419,-119.115789473684,4203,-212.452631578947,-60.6526315789474,4000,110.010526315789,4026,4629,-267.947368421053,43.9578947368421,4447,3984,166.526315789474,124,0,2291,2531,529,4,4,4,4,4,4,4,4,4,4,4,4,4,4,4,4
"180",4416,-111.936842105263,4197,-205.778947368421,-83.7263157894737,4008,111.031578947368,4034,4635,-263.842105263158,44.4736842105263,4456,3981,170.631578947368,125,0,2291,2539,468,4,4,4,4,4,4,4,4,4,4,4,4,4,4,4,4
"181",4418,-99.1157894736842,4200,-192.957894736842,-69.3684210526316,4026,112.568421052632,4058,4636,-248.452631578947,44.9894736842105,4469,3983,189.6,126,0,2291,2535,583,4,4,4,4,4,4,4,4,4,4,4,4,4,4,4,4
"182",4418,-91.9368421052632,4204,-182.189473684211,-47.8315789473684,4034,113.6,4065,4635,-239.736842105263,47.5473684210526,4470,3990,198.315789473684,127,0,2291,2535,420,4,4,4,4,4,4,4,4,4,4,4,4,4,4,4,4
"183",4413,-100.652631578947,4202,-191.936842105263,-49.3684210526316,4021,112.052631578947,4048,4637,-251.536842105263,49.0842105263158,4460,3992,182.936842105263,128,0,2291,2539,529,4,4,4,4,4,4,4,4,4,4,4,4,4,4,4,4
"184",4408,-110.915789473684,4202,-206.810526315789,-50.4,4001,109.494736842105,4035,4631,-269.989473684211,44.9894736842105,4449,3987,164.473684210526,0,0,2291,2535,414,4,4,4,4,4,4,4,4,4,4,4,4,4,4,4,4
"185",4417,-120.652631578947,4199,-214.505263157895,-52.4526315789474,3991,110.010526315789,4032,4631,-279.736842105263,44.4736842105263,4438,3984,158.831578947368,1,0,2287,2539,446,4,4,4,4,4,4,4,4,4,4,4,4,4,4,4,4
"186",4415,-132.452631578947,4193,-221.168421052632,-55.5263157894737,3980,107.957894736842,4021,4633,-291.536842105263,47.0421052631579,4424,3984,144.473684210526,2,0,2295,2539,519,4,4,4,4,4,4,4,4,4,4,4,4,4,4,4,4
"187",4397,-130.915789473684,4189,-222.189473684211,-65.2736842105263,3978,99.7473684210526,4017,4623,-298.715789473684,36.2736842105263,4422,3978,139.863157894737,3,0,2291,2535,498,4,4,4,4,4,4,4,4,4,4,4,4,4,4,4,4
"188",4391,-122.189473684211,4188,-214.505263157895,-69.3684210526316,3990,96.6736842105263,4031,4620,-291.536842105263,28.0631578947368,4433,3972,158.315789473684,4,0,2291,2539,521,4,4,4,4,4,4,4,4,4,4,4,4,4,4,4,4
"189",4395,-111.421052631579,4189,-199.631578947368,-67.3157894736842,4009,97.6947368421053,4048,4628,-277.684210526316,36.7789473684211,4445,3973,176.273684210526,5,0,2291,2535,490,4,4,4,4,4,4,4,4,4,4,4,4,4,4,4,4
"190",4398,-107.831578947368,4185,-197.063157894737,-70.4,4014,96.1578947368421,4056,4626,-273.578947368421,36.7789473684211,4451,3975,176.273684210526,6,0,2295,2539,529,4,4,4,4,4,4,4,4,4,4,4,4,4,4,4,4
"191",4391,-107.315789473684,4184,-199.115789473684,-75.0105263157895,4008,96.6736842105263,4056,4620,-277.168421052632,27.0421052631579,4453,3970,175.757894736842,7,0,2295,2531,506,4,4,4,4,4,4,4,4,4,4,4,4,4,4,4,4
"192",4392,-98.6,4193,-188.347368421053,-72.9578947368421,4017,104.368421052632,4063,4627,-271.536842105263,35.2421052631579,4462,3973,186.526315789474,8,0,2291,2535,523,4,4,4,4,4,4,4,4,4,4,4,4,4,4,4,4
"193",4405,-96.0421052631579,4197,-183.726315789474,-69.3684210526316,4026,112.052631578947,4071,4631,-262.810526315789,47.0421052631579,4466,3979,190.115789473684,9,0,2295,2527,536,4,4,4,4,4,4,4,4,4,4,4,4,4,4,4,4
"194",4404,-94.5052631578947,4195,-183.726315789474,-72.4526315789474,4025,109.494736842105,4072,4626,-262.810526315789,42.4210526315789,4464,3975,188.578947368421,10,0,2291,2531,577,4,4,4,4,4,4,4,4,4,4,4,4,4,4,4,4
"195",4399,-91.9368421052632,4192,-178.094736842105,-75.5263157894737,4025,107.957894736842,4072,4630,-258.715789473684,39.8631578947368,4472,3973,195.757894736842,11,0,2295,2527,416,4,4,4,4,4,4,4,4,4,4,4,4,4,4,4,4
"196",4401,-91.4210526315789,4191,-173.989473684211,-79.6315789473684,4027,109.494736842105,4072,4634,-255.631578947368,44.4736842105263,4476,3975,197.810526315789,12,0,2291,2531,529,4,4,4,4,4,4,4,4,4,4,4,4,4,4,4,4
"197",4401,-90.4,4190,-178.6,-81.6842105263158,4025,108.463157894737,4071,4625,-265.378947368421,41.4,4468,3974,188.578947368421,13,0,2295,2535,464,4,4,4,4,4,4,4,4,4,4,4,4,4,4,4,4
"198",4409,-99.1157894736842,4191,-187.831578947368,-79.6315789473684,4016,109.494736842105,4065,4621,-274.094736842105,37.2947368421053,4459,3971,175.757894736842,14,0,2291,2535,577,4,4,4,4,4,4,4,4,4,4,4,4,4,4,4,4
"199",4407,-104.757894736842,4190,-190.915789473684,-80.6526315789474,4011,108.978947368421,4056,4621,-273.578947368421,35.2421052631579,4457,3967,167.547368421053,15,0,2295,2543,416,4,4,4,4,4,4,4,4,4,4,4,4,4,4,4,4
"200",4392,-105.778947368421,4183,-190.915789473684,-83.7263157894737,4007,109.494736842105,4052,4622,-274.094736842105,32.6842105263158,4453,3960,163.452631578947,16,0,2291,2535,0,4,4,4,4,4,4,4,4,4,4,4,4,4,4,4,4
"201",4393,-103.221052631579,4190,-189.368421052632,-81.6842105263158,4012,115.642105263158,4058,4619,-278.2,38.3157894736842,4452,3959,161.4,17,0,2291,2539,0,4,4,4,4,4,4,4,4,4,4,4,4,4,4,4,4
"202",4409,-99.6315789473684,4199,-184.242105263158,-71.9368421052632,4022,118.726315789474,4071,4616,-274.610526315789,44.4736842105263,4456,3962,166.526315789474,18,0,2295,2535,0,4,4,4,4,4,4,4,4,4,4,4,4,4,4,4,4
"203",4405,-106.294736842105,4193,-188.863157894737,-65.7789473684211,4017,114.105263157895,4067,4613,-278.2,37.2947368421053,4449,3957,166.010526315789,19,0,2291,2535,0,4,4,4,4,4,4,4,4,4,4,4,4,4,4,4,4
"204",4384,-110.4,4186,-197.578947368421,-68.8631578947368,4003,108.978947368421,4052,4606,-295.631578947368,29.6,4436,3957,152.684210526316,20,0,2295,2531,0,4,4,4,4,4,4,4,4,4,4,4,4,4,4,4,4
"205",4376,-116.547368421053,4185,-205.273684210526,-69.8842105263158,3994,106.926315789474,4046,4603,-303.326315789474,31.6526315789474,4431,3959,147.547368421053,21,0,2291,2535,0,4,4,4,4,4,4,4,4,4,4,4,4,4,4,4,4
"206",4378,-117.578947368421,4188,-200.652631578947,-65.2736842105263,3999,105.905263157895,4051,4606,-296.147368421053,33.7052631578947,4433,3958,155.242105263158,22,0,2295,2531,0,4,4,4,4,4,4,4,4,4,4,4,4,4,4,4,4
"207",4382,-104.757894736842,4189,-185.273684210526,-61.6842105263158,4018,104.368421052632,4058,4612,-284.357894736842,31.6526315789474,4445,3959,166.526315789474,23,0,2291,2531,0,4,4,4,4,4,4,4,4,4,4,4,4,4,4,4,4
"208",4385,-110.4,4190,-193.473684210526,-63.2210526315789,3990,105.389473684211,4053,4614,-287.431578947368,32.6842105263158,4444,3958,161.905263157895,24,0,2295,2531,0,4,4,4,4,4,4,4,4,4,4,4,4,4,4,4,4
"209",4379,-138.6,4188,-221.684210526316,-64.7578947368421,3907,104.873684210526,4030,4609,-313.073684210526,32.1684210526316,4412,3957,135.242105263158,25,0,2295,2527,0,4,4,4,4,4,4,4,4,4,4,4,4,4,4,4,4
"210",4378,-162.189473684211,4186,-240.136842105263,-60.6526315789474,3858,104.873684210526,4008,4606,-333.578947368421,30.6315789473684,4386,3956,110.115789473684,26,0,2295,2531,0,4,4,4,4,4,4,4,4,4,4,4,4,4,4,4,4
"211",4376,-166.810526315789,4188,-244.242105263158,-60.1368421052632,3865,104.873684210526,3999,4603,-338.2,29.6,4381,3954,101.4,27,0,2295,2531,0,4,4,4,4,4,4,4,4,4,4,4,4,4,4,4,4
"212",4365,-168.347368421053,4187,-248.863157894737,-63.7263157894737,3862,99.2315789473684,3994,4598,343.452631578947,29.0842105263158,4373,3954,96.778947368421,28,0,2295,2535,0,4,4,4,4,4,4,4,4,4,4,4,4,4,4,4,4
"213",4361,-177.063157894737,4186,-258.6,-62.1894736842105,3841,93.0842105263158,3987,4599,330.115789473684,30.1157894736842,4360,3951,85.4947368421053,29,0,2299,2531,0,4,4,4,4,4,4,4,4,4,4,4,4,4,4,4,4
"214",4365,-173.989473684211,4187,-258.094736842105,-59.1157894736842,3843,91.0315789473684,3985,4593,329.6,28.5789473684211,4359,3947,78.8315789473684,30,0,2291,2535,0,4,4,4,4,4,4,4,4,4,4,4,4,4,4,4,4
"215",4370,-171.421052631579,4186,-255.526315789474,-55.5263157894737,3850,94.1052631578947,3992,4591,334.221052631579,28.5789473684211,4366,3953,82.4210526315789,31,0,2295,2531,0,4,4,4,4,4,4,4,4,4,4,4,4,4,4,4,4
"216",4370,-173.473684210526,4186,-256.042105263158,-50.4,3847,95.1368421052632,3994,4597,332.168421052632,31.6526315789474,4364,3956,84.4736842105263,32,0,2295,2531,0,4,4,4,4,4,4,4,4,4,4,4,4,4,4,4,4
"217",4365,-170.915789473684,4187,-253.473684210526,-49.3684210526316,3851,86.4210526315789,3995,4596,334.726315789474,32.1684210526316,4362,3947,85.4947368421053,33,0,2295,2535,0,4,4,4,4,4,4,4,4,4,4,4,4,4,4,4,4
"218",4363,-167.831578947368,4185,-252.957894736842,-45.7789473684211,3856,79.7473684210526,3996,4594,337.294736842105,30.6315789473684,4366,3950,87.5473684210526,34,0,2295,2531,0,4,4,4,4,4,4,4,4,4,4,4,4,4,4,4,4
"219",4361,-159.115789473684,4188,-246.294736842105,-38.6,3859,81.8,3999,4596,338.315789473684,32.1684210526316,4375,3960,94.2210526315789,35,0,2295,2527,0,4,4,4,4,4,4,4,4,4,4,4,4,4,4,4,4
"220",4360,-155.526315789474,4193,-242.189473684211,-38.0947368421053,3861,82.8315789473684,4003,4598,-344.357894736842,33.7052631578947,4382,3955,103.452631578947,36,0,2295,2527,0,4,4,4,4,4,4,4,4,4,4,4,4,4,4,4,4
"221",4355,-158.094736842105,4191,-244.242105263158,-43.7263157894737,3860,76.6736842105263,3998,4598,-340.252631578947,32.1684210526316,4380,3951,103.452631578947,37,0,2295,2523,0,4,4,4,4,4,4,4,4,4,4,4,4,4,4,4,4
"222",4342,-165.778947368421,4185,-253.473684210526,-42.7052631578947,3844,74.1052631578947,3984,4592,336.273684210526,29.6,4368,3949,88.0631578947368,38,0,2291,2535,0,4,4,4,4,4,4,4,4,4,4,4,4,4,4,4,4
"223",4336,-182.189473684211,4182,-272.957894736842,-37.0631578947368,3823,76.1578947368421,3967,4585,316.273684210526,28.5789473684211,4345,3941,62.4210526315789,39,0,2295,2531,0,4,4,4,4,4,4,4,4,4,4,4,4,4,4,4,4
"224",4346,-179.115789473684,4191,-270.4,-35.5263157894737,3828,78.7263157894737,3971,4585,316.273684210526,30.1157894736842,4344,3949,60.3684210526316,40,0,2291,2535,0,4,4,4,4,4,4,4,4,4,4,4,4,4,4,4,4
"225",4358,-172.452631578947,4198,-261.168421052632,-28.8631578947368,3839,80.7789473684211,3979,4591,326.010526315789,33.7052631578947,4357,3961,71.1368421052632,41,0,2295,2539,0,4,4,4,4,4,4,4,4,4,4,4,4,4,4,4,4
"226",4362,-182.705263157895,4191,-268.863157894737,-19.1157894736842,3824,78.7263157894737,3968,4588,316.778947368421,33.7052631578947,4347,3957,62.9368421052632,42,0,2295,2535,0,4,4,4,4,4,4,4,4,4,4,4,4,4,4,4,4
"227",4361,-184.757894736842,4187,-272.452631578947,-17.0631578947368,3817,75.6421052631579,3962,4583,308.063157894737,32.1684210526316,4337,3953,55.7578947368421,43,0,2291,2535,0,4,4,4,4,4,4,4,4,4,4,4,4,4,4,4,4
"228",4362,-179.115789473684,4198,-270.4,-15.0105263157895,3827,77.6947368421053,3967,4589,313.18947368421,38.3157894736842,4342,3962,59.8631578947368,44,0,2295,2539,0,4,4,4,4,4,4,4,4,4,4,4,4,4,4,4,4
"229",4363,-175.010526315789,4207,-265.778947368421,-3.22105263157895,3835,80.2631578947368,3973,4598,318.315789473684,46.5263157894737,4346,3967,62.4210526315789,45,0,2295,2535,0,4,4,4,4,4,4,4,4,4,4,4,4,4,4,4,4
"230",4361,-171.936842105263,4198,-258.094736842105,-0.652631578947368,3838,75.1368421052632,3985,4596,324.989473684211,46.0105263157895,4351,3962,68.0631578947368,46,0,2291,2531,0,4,4,4,4,4,4,4,4,4,4,4,4,4,4,4,4
"231",4349,-161.684210526316,4193,-251.421052631579,-14.5052631578947,3845,61.8,3997,4586,331.652631578947,36.7789473684211,4363,3956,80.8842105263158,47,0,2291,2539,0,4,4,4,4,4,4,4,4,4,4,4,4,4,4,4,4
"232",4345,-149.368421052632,4198,-244.242105263158,-14.5052631578947,3860,57.1894736842105,4010,4584,340.884210526316,32.6842105263158,4374,3958,94.2210526315789,48,0,2299,2531,0,4,4,4,4,4,4,4,4,4,4,4,4,4,4,4,4
"233",4351,-145.778947368421,4203,-236.042105263158,-3.22105263157895,3872,63.8526315789474,4021,4594,-338.2,39.8631578947368,4384,3959,104.989473684211,49,0,2291,2531,0,4,4,4,4,4,4,4,4,4,4,4,4,4,4,4,4
"234",4345,-144.242105263158,4203,-232.452631578947,-1.68421052631579,3873,64.8736842105263,4016,4597,-336.663157894737,44.4736842105263,4388,3962,107.042105263158,50,0,2295,2531,0,4,4,4,4,4,4,4,4,4,4,4,4,4,4,4,4
"235",4340,-151.421052631579,4201,-241.168421052632,6.01052631578947,3866,62.8315789473684,4006,4592,343.957894736842,45.4947368421053,4378,3965,99.3473684210526,51,0,2295,2531,0,4,4,4,4,4,4,4,4,4,4,4,4,4,4,4,4
"236",4345,-161.168421052632,4202,-251.421052631579,16.2736842105263,3856,60.2631578947368,4002,4587,335.757894736842,41.4,4368,3962,89.6,52,0,2295,2531,0,4,4,4,4,4,4,4,4,4,4,4,4,4,4,4,4
"237",4338,-162.189473684211,4199,-256.547368421053,13.7052631578947,3851,49.4947368421053,3994,4583,333.705263157895,32.6842105263158,4364,3956,82.4210526315789,53,0,2291,2531,0,4,4,4,4,4,4,4,4,4,4,4,4,4,4,4,4
"238",4332,-167.831578947368,4198,-263.221052631579,10.1157894736842,3844,42.8315789473684,3988,4583,327.042105263158,30.6315789473684,4355,3956,75.2421052631579,54,0,2295,2535,0,4,4,4,4,4,4,4,4,4,4,4,4,4,4,4,4
"239",4334,-172.452631578947,4203,-265.273684210526,13.7052631578947,3839,43.8526315789474,3987,4578,323.452631578947,34.2210526315789,4350,3957,70.6315789473684,55,0,2295,2527,0,4,4,4,4,4,4,4,4,4,4,4,4,4,4,4,4
"240",4337,-173.989473684211,4201,-272.452631578947,19.3473684210526,3842,41.8,3981,4574,321.4,33.1894736842105,4346,3957,66.5263157894737,56,0,2291,2535,0,4,4,4,4,4,4,4,4,4,4,4,4,4,4,4,4
"241",4343,-178.094736842105,4199,-281.684210526316,26.0105263157895,3826,42.3157894736842,3972,4572,310.631578947368,35.7578947368421,4337,3958,56.7789473684211,57,0,2295,2531,0,4,4,4,4,4,4,4,4,4,4,4,4,4,4,4,4
"242",4348,-182.189473684211,4209,-280.652631578947,35.2421052631579,3795,48.4631578947368,3979,4573,304.989473684211,43.4526315789474,4334,3965,52.1684210526316,58,0,2295,2531,0,4,4,4,4,4,4,4,4,4,4,4,4,4,4,4,4
"243",4347,-186.294736842105,4217,-282.18947368421,44.9894736842105,3779,49.4947368421053,3987,4573,308.578947368421,47.0421052631579,4335,3973,51.6526315789474,59,0,2295,2531,0,4,4,4,4,4,4,4,4,4,4,4,4,4,4,4,4
"244",4335,-190.4,4211,-290.4,44.9894736842105,3779,37.6947368421053,3978,4570,305.494736842105,42.9368421052632,4327,3967,42.9368421052632,60,0,2291,2535,0,4,4,4,4,4,4,4,4,4,4,4,4,4,4,4,4
"245",4321,-200.652631578947,4200,-299.631578947368,33.7052631578947,3766,21.8,3963,4569,293.18947368421,34.7263157894737,4312,3953,31.1368421052632,61,0,2295,2535,0,4,4,4,4,4,4,4,4,4,4,4,4,4,4,4,4
"246",4310,-202.189473684211,4203,-302.18947368421,28.5789473684211,3759,16.1578947368421,3961,4567,287.042105263158,31.6526315789474,4309,3953,27.0421052631579,62,0,2295,2535,0,4,4,4,4,4,4,4,4,4,4,4,4,4,4,4,4
"247",4305,-197.578947368421,4211,-297.578947368421,33.1894736842105,3770,14.6210526315789,3967,4568,291.652631578947,36.7789473684211,4314,3960,26.5263157894737,63,0,2295,2539,0,4,4,4,4,4,4,4,4,4,4,4,4,4,4,4,4
"248",4299,-213.989473684211,4208,-309.368421052632,32.1684210526316,3754,7.95789473684211,3955,4569,281.905263157895,33.1894736842105,4299,3956,13.1894736842105,64,0,2295,2539,414,4,4,4,4,4,4,4,4,4,4,4,4,4,4,4,4
"249",4289,-230.915789473684,4201,-327.315789473684,28.0631578947368,3728,-2.81052631578947,3929,4561,258.831578947368,24.9894736842105,4277,3948,-7.83157894736842,65,0,2295,2535,445,4,4,4,4,4,4,4,4,4,4,4,4,4,4,4,4
"250",4291,-229.368421052632,4202,-324.757894736842,29.6,3737,-9.98947368421053,3930,4558,256.778947368421,28.5789473684211,4280,3945,-7.31578947368421,66,0,2295,2531,519,4,4,4,4,4,4,4,4,4,4,4,4,4,4,4,4
"251",4298,-213.473684210526,4204,-306.810526315789,36.7789473684211,3768,-11.0210526315789,3957,4564,278.831578947368,31.1368421052632,4306,3947,17.8105263157895,67,0,2295,2539,498,4,4,4,4,4,4,4,4,4,4,4,4,4,4,4,4
"252",4297,-197.578947368421,4202,-290.915789473684,42.4210526315789,3788,-13.0736842105263,3976,4558,294.221052631579,28.0631578947368,4327,3953,40.3684210526316,68,0,2299,2539,521,4,4,4,4,4,4,4,4,4,4,4,4,4,4,4,4
"253",4297,-199.115789473684,4204,-291.936842105263,46.5263157894737,3787,-9.48421052631579,3975,4556,291.652631578947,31.1368421052632,4324,3957,38.3157894736842,69,0,2295,2535,490,4,4,4,4,4,4,4,4,4,4,4,4,4,4,4,4
"254",4298,-208.863157894737,4214,-299.631578947368,49.6,3776,-3.32631578947368,3963,4563,281.905263157895,32.6842105263158,4310,3958,22.4210526315789,70,0,2295,2539,528,4,4,4,4,4,4,4,4,4,4,4,4,4,4,4,4
"255",4299,-216.042105263158,4216,-309.368421052632,48.0631578947368,3765,-6.91578947368421,3949,4560,270.115789473684,26.5263157894737,4301,3955,9.6,71,0,2295,2535,506,4,4,4,4,4,4,4,4,4,4,4,4,4,4,4,4
"256",4299,-220.652631578947,4208,-319.115789473684,45.4947368421053,3754,-14.6105263157895,3941,4548,255.757894736842,25.4947368421053,4289,3948,-4.2421052631579,72,0,2299,2531,523,4,4,4,4,4,4,4,4,4,4,4,4,4,4,4,4
"257",4293,-225.778947368421,4203,-324.242105263158,47.0421052631579,3749,-16.6631578947368,3941,4544,251.652631578947,26.0105263157895,4281,3943,-9.88421052631579,73,0,2295,2531,534,4,4,4,4,4,4,4,4,4,4,4,4,4,4,4,4
"258",4284,-232.957894736842,4201,-329.368421052632,47.0421052631579,3747,-16.6631578947368,3940,4546,251.652631578947,21.9052631578947,4280,3939,-9.36842105263158,74,0,2299,2527,577,4,4,4,4,4,4,4,4,4,4,4,4,4,4,4,4
"259",4277,-230.915789473684,4205,-325.273684210526,44.4736842105263,3749,-19.7368421052632,3941,4550,249.6,24.4736842105263,4283,3942,-14.5052631578947,75,0,2295,2531,414,4,4,4,4,4,4,4,4,4,4,4,4,4,4,4,4
"260",4275,-228.347368421053,4210,-323.726315789474,49.6,3752,-19.7368421052632,3938,4558,249.6,32.1684210526316,4282,3946,-20.6526315789474,76,0,2295,2531,527,4,4,4,4,4,4,4,4,4,4,4,4,4,4,4,4
"261",4271,-241.168421052632,4207,-338.094736842105,51.1368421052632,3738,-26.4,3925,4558,238.831578947368,30.1157894736842,4268,3943,-37.5789473684211,77,0,2295,2539,463,4,4,4,4,4,4,4,4,4,4,4,4,4,4,4,4
"262",4269,-249.884210526316,4205,344.578947368421,45.4947368421053,3729,-35.1263157894737,3921,4550,225.494736842105,25.4947368421053,4256,3939,-50.9157894736842,78,0,2295,2531,577,4,4,4,4,4,4,4,4,4,4,4,4,4,4,4,4
"263",4275,-239.631578947368,4210,-335.010526315789,51.6526315789474,3746,-27.4315789473684,3931,4549,237.294736842105,28.0631578947368,4268,3942,-38.0947368421053,79,0,2287,2539,414,4,4,4,4,4,4,4,4,4,4,4,4,4,4,4,4
"264",4276,-222.189473684211,4218,-319.631578947368,62.4210526315789,3769,-18.7157894736842,3941,4553,257.294736842105,29.0842105263158,4286,3944,-15.5263157894737,80,0,2299,2543,527,4,4,4,4,4,4,4,4,4,4,4,4,4,4,4,4
"265",4277,-216.547368421053,4214,-312.957894736842,61.9052631578947,3776,-21.7894736842105,3953,4550,263.452631578947,26.5263157894737,4295,3940,-5.27368421052632,81,0,2295,2535,463,4,4,4,4,4,4,4,4,4,4,4,4,4,4,4,4
"266",4279,-218.6,4206,-310.4,59.8631578947368,3779,-24.8631578947368,3963,4541,262.936842105263,26.0105263157895,4300,3938,-2.70526315789474,82,0,2291,2539,577,4,4,4,4,4,4,4,4,4,4,4,4,4,4,4,4
"267",4272,-222.705263157895,4208,-313.473684210526,60.8842105263158,3780,-22.3052631578947,3952,4535,257.810526315789,27.5473684210526,4293,3941,-5.27368421052632,83,0,2291,2539,414,4,4,4,4,4,4,4,4,4,4,4,4,4,4,4,4
"268",4270,-232.957894736842,4213,-327.831578947368,61.9052631578947,3767,-18.7157894736842,3938,4542,247.042105263158,28.5789473684211,4276,3940,-19.6315789473684,84,0,2295,2531,527,4,4,4,4,4,4,4,4,4,4,4,4,4,4,4,4
"269",4282,-228.347368421053,4220,-323.726315789474,67.5473684210526,3770,-17.6842105263158,3946,4551,250.115789473684,29.0842105263158,4283,3943,-18.6,85,0,2291,2531,463,4,4,4,4,4,4,4,4,4,4,4,4,4,4,4,4
"270",4294,-212.452631578947,4224,-301.168421052632,78.3157894736842,3792,-15.1263157894737,3965,4556,270.631578947368,31.1368421052632,4307,3953,4.47368421052632,86,0,2295,2535,577,4,4,4,4,4,4,4,4,4,4,4,4,4,4,4,4
"271",4298,-205.273684210526,4224,-291.936842105263,84.9894736842105,3804,-8.96842105263158,3970,4559,282.936842105263,33.7052631578947,4316,3956,17.2947368421053,87,0,2295,2527,414,4,4,4,4,4,4,4,4,4,4,4,4,4,4,4,4
"272",4294,-204.757894736842,4226,-296.042105263158,86.5263157894737,3804,-9.98947368421053,3966,4562,279.863157894737,33.1894736842105,4312,3951,9.6,88,0,2291,2531,527,4,4,4,4,4,4,4,4,4,4,4,4,4,4,4,4
"273",4287,-220.652631578947,4225,-313.473684210526,82.9368421052632,3788,-14.6105263157895,3951,4562,260.884210526316,30.6315789473684,4291,3950,-14.5052631578947,89,0,2295,2531,463,4,4,4,4,4,4,4,4,4,4,4,4,4,4,4,4
"274",4285,-239.115789473684,4226,-330.915789473684,78.8315789473684,3764,-9.48421052631579,3932,4553,239.863157894737,29.6,4265,3948,-39.6315789473684,90,0,2295,2531,577,4,4,4,4,4,4,4,4,4,4,4,4,4,4,4,4
"275",4286,-239.631578947368,4227,-331.421052631579,78.8315789473684,3764,0.778947368421053,3932,4547,237.294736842105,30.6315789473684,4265,3946,-42.1894736842105,91,0,2295,2531,414,4,4,4,4,4,4,4,4,4,4,4,4,4,4,4,4
"276",4278,-232.452631578947,4226,-324.757894736842,83.4526315789474,3778,-0.252631578947368,3941,4553,241.4,30.6315789473684,4277,3945,-36.5473684210526,92,0,2295,2535,527,4,4,4,4,4,4,4,4,4,4,4,4,4,4,4,4
"277",4272,-225.273684210526,4224,-318.6,89.0842105263158,3785,-4.86315789473684,3942,4551,247.042105263158,30.1157894736842,4278,3945,-34.5052631578947,93,0,2295,2531,463,4,4,4,4,4,4,4,4,4,4,4,4,4,4,4,4
"278",4284,-217.578947368421,4229,-309.368421052632,93.7052631578947,3791,-0.768421052631579,3952,4547,258.831578947368,32.1684210526316,4286,3952,-20.1368421052632,94,0,2291,2531,577,4,4,4,4,4,4,4,4,4,4,4,4,4,4,4,4
"279",4292,-204.757894736842,4237,-295.526315789474,93.7052631578947,3809,-1.27368421052632,3973,4547,272.684210526316,33.7052631578947,4307,3959,0.368421052631579,95,0,2291,2539,414,4,4,4,4,4,4,4,4,4,4,4,4,4,4,4,4
"280",4285,-198.094736842105,4231,-290.4,93.7052631578947,3822,-10.5052631578947,3981,4544,277.810526315789,31.6526315789474,4317,3951,7.54736842105263,96,0,2299,2531,527,4,4,4,4,4,4,4,4,4,4,4,4,4,4,4,4
"281",4276,-198.094736842105,4224,-289.368421052632,93.7052631578947,3818,-16.6631578947368,3974,4538,279.347368421053,29.0842105263158,4313,3941,11.6526315789474,97,0,2295,2535,463,4,4,4,4,4,4,4,4,4,4,4,4,4,4,4,4
"282",4260,-202.189473684211,4227,-289.368421052632,91.6526315789474,3814,-16.6631578947368,3970,4535,277.294736842105,27.0421052631579,4310,3943,9.6,98,0,2299,2535,577,4,4,4,4,4,4,4,4,4,4,4,4,4,4,4,4
"283",4249,-218.094736842105,4226,-305.778947368421,90.1157894736842,3802,-15.1263157894737,3957,4528,258.831578947368,27.0421052631579,4297,3942,-11.4210526315789,99,0,2299,2531,414,4,4,4,4,4,4,4,4,4,4,4,4,4,4,4,4
"284",4251,-224.242105263158,4224,-317.578947368421,89.0842105263158,3788,-17.1684210526316,3943,4524,244.989473684211,24.4736842105263,4282,3938,-24.2421052631579,100,0,2299,2531,527,4,4,4,4,4,4,4,4,4,4,4,4,4,4,4,4
"285",4256,-220.136842105263,4225,-315.010526315789,89.6,3790,-18.2,3947,4532,251.652631578947,19.3473684210526,4285,3938,-17.5789473684211,101,0,2295,2531,463,4,4,4,4,4,4,4,4,4,4,4,4,4,4,4,4
"286",4257,-216.042105263158,4230,-308.347368421053,91.6526315789474,3800,-17.6842105263158,3956,4536,258.315789473684,20.3684210526316,4294,3938,-15.5263157894737,102,0,2295,2531,577,4,4,4,4,4,4,4,4,4,4,4,4,4,4,4,4
"287",4262,-207.831578947368,4233,-298.6,93.1894736842105,3808,-16.6631578947368,3961,4536,261.905263157895,26.5263157894737,4298,3940,-13.9894736842105,103,0,2291,2531,414,4,4,4,4,4,4,4,4,4,4,4,4,4,4,4,4
"288",4270,-209.884210526316,4232,-303.726315789474,96.2736842105263,3805,-13.5789473684211,3963,4542,263.452631578947,29.0842105263158,4296,3943,-12.9578947368421,104,0,2295,2539,527,4,4,4,4,4,4,4,4,4,4,4,4,4,4,4,4
"289",4261,-220.136842105263,4231,-318.094736842105,99.3473684210526,3791,-17.1684210526316,3953,4541,253.189473684211,27.5473684210526,4286,3943,-24.7578947368421,105,0,2295,2535,463,4,4,4,4,4,4,4,4,4,4,4,4,4,4,4,4
"290",4249,-224.242105263158,4229,-321.168421052632,104.473684210526,3783,-18.7157894736842,3941,4536,244.989473684211,29.0842105263158,4279,3941,-33.4736842105263,106,0,2291,2539,577,4,4,4,4,4,4,4,4,4,4,4,4,4,4,4,4
"291",4250,-222.705263157895,4232,-318.6,110.631578947368,3781,-14.0947368421053,3939,4536,244.473684210526,29.6,4277,3941,-33.4736842105263,107,0,2295,2535,414,4,4,4,4,4,4,4,4,4,4,4,4,4,4,4,4
"292",4250,-225.273684210526,4241,-321.168421052632,110.631578947368,3774,-15.1263157894737,3941,4533,237.294736842105,28.0631578947368,4272,3944,-39.1157894736842,108,0,2295,2531,527,4,4,4,4,4,4,4,4,4,4,4,4,4,4,4,4
"293",4253,-233.989473684211,4241,-330.4,111.136842105263,3770,-13.0736842105263,3936,4527,230.631578947368,28.5789473684211,4262,3943,-48.8631578947368,109,0,2295,2531,463,4,4,4,4,4,4,4,4,4,4,4,4,4,4,4,4
"294",4262,-231.421052631579,4236,-328.863157894737,116.778947368421,3778,-5.89473684210526,3942,4518,230.631578947368,25.4947368421053,4260,3940,-51.4210526315789,110,0,2295,2535,577,4,4,4,4,4,4,4,4,4,4,4,4,4,4,4,4
"295",4271,-220.652631578947,4237,-316.547368421053,117.294736842105,3791,-8.45263157894737,3958,4515,236.273684210526,17.2947368421053,4275,3942,-37.0631578947368,111,0,2295,2531,414,4,4,4,4,4,4,4,4,4,4,4,4,4,4,4,4
"296",4270,-216.042105263158,4239,-313.989473684211,110.631578947368,3793,-16.1473684210526,3962,4517,247.042105263158,14.7263157894737,4284,3940,-22.1894736842105,112,0,2295,2535,527,4,4,4,4,4,4,4,4,4,4,4,4,4,4,4,4
"297",4253,-211.421052631579,4235,-310.915789473684,107.042105263158,3794,-14.6105263157895,3957,4524,259.347368421053,20.3684210526316,4285,3933,-16.5473684210526,113,0,2295,2531,463,4,4,4,4,4,4,4,4,4,4,4,4,4,4,4,4
"298",4242,-210.915789473684,4231,-308.347368421053,106.010526315789,3799,-14.0947368421053,3964,4535,261.4,22.4210526315789,4291,3928,-16.5473684210526,114,0,2295,2531,577,4,4,4,4,4,4,4,4,4,4,4,4,4,4,4,4
"299",4244,-209.368421052632,4237,-310.915789473684,106.010526315789,3798,-21.7894736842105,3972,4538,255.757894736842,23.4526315789474,4293,3928,-20.1368421052632,115,0,2295,2531,414,4,4,4,4,4,4,4,4,4,4,4,4,4,4,4,4
"300",4246,-209.884210526316,4244,-313.473684210526,110.115789473684,3796,-21.7894736842105,3971,4531,255.242105263158,26.0105263157895,4286,3936,-19.6315789473684,116,0,2295,2535,527,4,4,4,4,4,4,4,4,4,4,4,4,4,4,4,4
"301",4235,-223.726315789474,4239,-323.221052631579,113.705263157895,3781,-16.6631578947368,3956,4526,247.042105263158,22.4210526315789,4272,3941,-30.4,117,0,2299,2531,463,4,4,4,4,4,4,4,4,4,4,4,4,4,4,4,4
"302",4219,-236.042105263158,4232,-336.547368421053,111.652631578947,3766,-22.8105263157895,3938,4518,225.494736842105,16.7789473684211,4256,3934,-54.5052631578947,118,0,2291,2535,577,4,4,4,4,4,4,4,4,4,4,4,4,4,4,4,4
"303",4215,-246.294736842105,4232,340.989473684211,109.6,3759,-24.8631578947368,3926,4515,212.684210526316,16.2736842105263,4244,3928,-67.8315789473684,119,0,2299,2535,414,4,4,4,4,4,4,4,4,4,4,4,4,4,4,4,4
"304",4212,-248.863157894737,4236,342.536842105263,110.115789473684,3757,-19.2210526315789,3922,4521,213.189473684211,16.7789473684211,4242,3936,-66.8105263157895,120,0,2299,2531,527,4,4,4,4,4,4,4,4,4,4,4,4,4,4,4,4
"305",4210,-240.652631578947,4234,-337.578947368421,112.168421052632,3764,-23.3263157894737,3928,4516,218.831578947368,16.2736842105263,4250,3942,-61.1684210526316,121,0,2295,2535,463,4,4,4,4,4,4,4,4,4,4,4,4,4,4,4,4
"306",4210,-235.010526315789,4233,-335.010526315789,111.136842105263,3772,-32.5578947368421,3938,4507,221.905263157895,15.7578947368421,4257,3933,-53.9894736842105,122,0,2295,2535,577,4,4,4,4,4,4,4,4,4,4,4,4,4,4,4,4
"307",4205,-231.936842105263,4235,-328.863157894737,109.084210526316,3779,-32.5578947368421,3944,4513,227.547368421053,15.7578947368421,4263,3929,-46.2947368421053,123,0,2299,2539,414,4,4,4,4,4,4,4,4,4,4,4,4,4,4,4,4
"308",4203,-232.452631578947,4233,-326.810526315789,110.631578947368,3777,-29.4842105263158,3946,4517,235.757894736842,15.7578947368421,4266,3929,-44.2421052631579,124,0,2295,2535,527,4,4,4,4,4,4,4,4,4,4,4,4,4,4,4,4
"309",4201,-234.505263157895,4231,-333.989473684211,109.6,3770,-33.5789473684211,3938,4504,231.652631578947,13.7052631578947,4261,3928,-49.8842105263158,125,0,2295,2543,463,4,4,4,4,4,4,4,4,4,4,4,4,4,4,4,4
"310",4195,-240.652631578947,4231,344.073684210526,109.084210526316,3763,-34.6105263157895,3927,4507,222.421052631579,13.7052631578947,4251,3927,-59.1157894736842,126,0,2299,2535,577,4,4,4,4,4,4,4,4,4,4,4,4,4,4,4,4
"311",4191,-246.294736842105,4234,337.4,115.757894736842,3755,-32.0421052631579,3921,4523,218.315789473684,17.2947368421053,4245,3929,-65.7789473684211,127,0,2291,2539,414,4,4,4,4,4,4,4,4,4,4,4,4,4,4,4,4
"312",4186,-240.652631578947,4235,343.557894736842,123.957894736842,3758,-32.0421052631579,3926,4520,222.936842105263,18.8315789473684,4249,3930,-61.1684210526316,128,0,2299,2543,527,4,4,4,4,4,4,4,4,4,4,4,4,4,4,4,4
"313",4184,-241.168421052632,4233,-343.726315789474,124.989473684211,3763,-31.0210526315789,3930,4517,222.421052631579,16.7789473684211,4252,3929,-53.4736842105263,0,0,2299,2535,414,4,4,4,4,4,4,4,4,4,4,4,4,4,4,4,4
"314",4186,-241.684210526316,4234,-340.652631578947,123.957894736842,3766,-34.6105263157895,3933,4516,216.273684210526,15.2421052631579,4247,3928,-55.0105263157895,1,0,2295,2539,445,4,4,4,4,4,4,4,4,4,4,4,4,4,4,4,4
"315",4199,-230.4,4234,-330.915789473684,124.989473684211,3781,-42.8105263157895,3948,4506,224.989473684211,13.7052631578947,4255,3927,-49.3684210526316,2,0,2295,2543,519,4,4,4,4,4,4,4,4,4,4,4,4,4,4,4,4
"316",4212,-219.631578947368,4232,-318.094736842105,126.010526315789,3798,-47.9473684210526,3963,4508,241.905263157895,16.2736842105263,4273,3929,-32.9578947368421,3,0,2299,2535,498,4,4,4,4,4,4,4,4,4,4,4,4,4,4,4,4
"317",4207,-218.6,4234,-315.010526315789,125.494736842105,3798,-48.9684210526316,3960,4517,244.989473684211,18.3157894736842,4276,3932,-29.8842105263158,4,0,2299,2535,521,4,4,4,4,4,4,4,4,4,4,4,4,4,4,4,4
"318",4194,-231.421052631579,4233,-327.831578947368,126.010526315789,3781,-49.9894736842105,3946,4514,230.631578947368,15.2421052631579,4261,3929,-46.2947368421053,5,0,2295,2539,490,4,4,4,4,4,4,4,4,4,4,4,4,4,4,4,4
"319",4182,-236.547368421053,4232,-332.957894736842,124.473684210526,3773,-51.0210526315789,3936,4511,226.526315789474,14.2210526315789,4252,3928,-55.5263157894737,6,0,2299,2531,528,4,4,4,4,4,4,4,4,4,4,4,4,4,4,4,4
"320",4175,-236.547368421053,4235,-330.915789473684,127.042105263158,3772,-48.9684210526316,3931,4517,232.684210526316,16.7789473684211,4253,3936,-55.0105263157895,7,0,2295,2531,506,4,4,4,4,4,4,4,4,4,4,4,4,4,4,4,4
"321",4179,-244.242105263158,4235,-336.547368421053,135.757894736842,3765,-48.4526315789474,3930,4510,224.473684210526,16.2736842105263,4245,3943,-64.2421052631579,8,0,2295,2531,523,4,4,4,4,4,4,4,4,4,4,4,4,4,4,4,4
"322",4194,-239.631578947368,4237,-332.957894736842,141.905263157895,3771,-46.9157894736842,3941,4502,224.473684210526,15.7578947368421,4249,3941,-60.6526315789474,9,0,2295,2527,534,4,4,4,4,4,4,4,4,4,4,4,4,4,4,4,4
"323",4207,-227.315789473684,4244,-321.684210526316,144.473684210526,3789,-35.6315789473684,3959,4508,240.368421052632,19.3473684210526,4265,3939,-40.6526315789474,10,0,2295,2527,577,4,4,4,4,4,4,4,4,4,4,4,4,4,4,4,4
"324",4202,-228.347368421053,4248,-318.6,142.421052631579,3788,-31.5368421052632,3959,4508,240.884210526316,18.8315789473684,4264,3943,-43.7263157894737,11,0,2291,2535,414,4,4,4,4,4,4,4,4,4,4,4,4,4,4,4,4
"325",4196,-235.010526315789,4244,-320.652631578947,141.905263157895,3780,-40.7684210526316,3952,4506,231.652631578947,18.8315789473684,4259,3941,-56.0421052631579,12,0,2295,2535,526,4,4,4,4,4,4,4,4,4,4,4,4,4,4,4,4
"326",4204,-225.778947368421,4246,-316.547368421053,149.6,3791,-39.7368421052632,3960,4516,241.4,26.5263157894737,4272,3940,-43.2210526315789,13,0,2291,2535,463,4,4,4,4,4,4,4,4,4,4,4,4,4,4,4,4
"327",4203,-212.957894736842,4251,-306.294736842105,153.189473684211,3804,-37.6842105263158,3968,4521,254.221052631579,29.0842105263158,4284,3944,-30.9157894736842,14,0,2295,2543,577,4,4,4,4,4,4,4,4,4,4,4,4,4,4,4,4
"328",4183,-230.4,4239,-321.168421052632,143.452631578947,3785,-55.1263157894737,3948,4512,237.294736842105,20.3684210526316,4262,3937,-56.0421052631579,15,0,2295,2535,414,4,4,4,4,4,4,4,4,4,4,4,4,4,4,4,4
"329",4163,-247.315789473684,4230,-343.726315789474,135.242105263158,3761,-71.0210526315789,3922,4504,213.705263157895,13.7052631578947,4238,3924,-85.7789473684211,16,0,2291,2539,0,4,4,4,4,4,4,4,4,4,4,4,4,4,4,4,4
"330",4170,-238.094736842105,4229,-337.578947368421,140.368421052632,3770,-66.9157894736842,3927,4508,220.368421052632,14.2210526315789,4248,3927,-75.5263157894737,17,0,2295,2535,0,4,4,4,4,4,4,4,4,4,4,4,4,4,4,4,4
"331",4187,-233.473684210526,4222,-328.347368421053,146.010526315789,3778,-62.8105263157895,3935,4518,228.063157894737,21.4,4253,3936,-63.2210526315789,18,0,2291,2535,0,4,4,4,4,4,4,4,4,4,4,4,4,4,4,4,4
"332",4185,-243.726315789474,4213,-341.684210526316,144.989473684211,3763,-71.5368421052632,3923,4519,210.631578947368,26.5263157894737,4233,3933,-79.6315789473684,19,0,2291,2535,0,4,4,4,4,4,4,4,4,4,4,4,4,4,4,4,4
"333",4174,-260.136842105263,4213,329.2,142.936842105263,3746,-78.2,3906,4510,194.221052631579,19.8631578947368,4217,3927,-96.5473684210526,20,0,2295,2535,0,4,4,4,4,4,4,4,4,4,4,4,4,4,4,4,4
"334",4171,-260.136842105263,4217,332.789473684211,140.368421052632,3748,-73.5789473684211,3905,4504,195.242105263158,12.6842105263158,4217,3929,-95.5263157894737,21,0,2295,2531,0,4,4,4,4,4,4,4,4,4,4,4,4,4,4,4,4
"335",4173,-250.915789473684,4216,343.042105263158,142.936842105263,3758,-66.9157894736842,3914,4510,201.4,15.2421052631579,4225,3930,-87.8315789473684,22,0,2295,2531,0,4,4,4,4,4,4,4,4,4,4,4,4,4,4,4,4
"336",4176,-252.957894736842,4216,341.505263157895,149.084210526316,3762,-66.4,3913,4511,199.347368421053,17.2947368421053,4228,3929,-85.7789473684211,23,0,2295,2531,0,4,4,4,4,4,4,4,4,4,4,4,4,4,4,4,4
"337",4179,-246.294736842105,4225,-339.631578947368,154.726315789474,3771,-64.8631578947368,3909,4505,202.936842105263,18.8315789473684,4234,3932,-80.1368421052632,24,0,2295,2535,0,4,4,4,4,4,4,4,4,4,4,4,4,4,4,4,4
"338",4186,-234.505263157895,4228,-328.347368421053,155.757894736842,3780,-61.2736842105263,3911,4507,216.273684210526,19.8631578947368,4246,3931,-69.8842105263158,25,0,2299,2527,0,4,4,4,4,4,4,4,4,4,4,4,4,4,4,4,4
"339",4191,-233.473684210526,4225,-327.315789473684,151.652631578947,3785,-64.3578947368421,3913,4512,222.936842105263,16.7789473684211,4251,3928,-67.3157894736842,26,0,2295,2535,0,4,4,4,4,4,4,4,4,4,4,4,4,4,4,4,4
"340",4192,-233.989473684211,4223,-326.294736842105,153.189473684211,3792,-67.4315789473684,3916,4515,226.010526315789,20.3684210526316,4254,3935,-67.3157894736842,27,0,2299,2531,0,4,4,4,4,4,4,4,4,4,4,4,4,4,4,4,4
"341",4197,-232.452631578947,4224,-324.757894736842,157.810526315789,3792,-63.3263157894737,3916,4518,227.042105263158,27.0421052631579,4255,3941,-68.8631578947368,28,0,2295,2531,0,4,4,4,4,4,4,4,4,4,4,4,4,4,4,4,4
"342",4190,-233.989473684211,4226,-327.831578947368,156.273684210526,3784,-64.8631578947368,3911,4523,221.905263157895,26.5263157894737,4249,3940,-77.0631578947368,29,0,2299,2531,0,4,4,4,4,4,4,4,4,4,4,4,4,4,4,4,4
"343",4175,-239.115789473684,4227,-330.4,156.778947368421,3782,-71.5368421052632,3909,4530,219.347368421053,28.5789473684211,4247,3940,-80.6526315789474,30,0,2295,2535,0,4,4,4,4,4,4,4,4,4,4,4,4,4,4,4,4
"344",4171,-232.452631578947,4226,-325.778947368421,158.831578947368,3788,-73.5789473684211,3914,4524,220.368421052632,31.6526315789474,4251,3937,-73.4736842105263,31,0,2299,2535,0,4,4,4,4,4,4,4,4,4,4,4,4,4,4,4,4
"345",4166,-240.652631578947,4216,-339.115789473684,148.063157894737,3776,-78.2,3906,4511,206.010526315789,22.9368421052632,4237,3930,-86.8105263157895,32,0,2299,2531,0,4,4,4,4,4,4,4,4,4,4,4,4,4,4,4,4
"346",4142,-269.884210526316,4214,319.968421052632,141.4,3745,-84.3578947368421,3878,4516,179.863157894737,15.7578947368421,4208,3926,-121.168421052632,33,0,2299,2535,0,4,4,4,4,4,4,4,4,4,4,4,4,4,4,4,4
"347",4126,-273.989473684211,4221,317.915789473684,149.6,3737,-84.8631578947368,3868,4522,173.189473684211,20.3684210526316,4201,3931,-125.778947368421,34,0,2303,2527,0,4,4,4,4,4,4,4,4,4,4,4,4,4,4,4,4
"348",4132,-266.810526315789,4219,325.610526315789,149.084210526316,3743,-82.8105263157895,3875,4509,178.315789473684,18.8315789473684,4208,3929,-115.010526315789,35,0,2295,2527,0,4,4,4,4,4,4,4,4,4,4,4,4,4,4,4,4
"349",4136,-270.915789473684,4218,316.378947368421,141.4,3736,-84.3578947368421,3875,4498,172.684210526316,10.6315789473684,4203,3925,-124.757894736842,36,0,2299,2523,0,4,4,4,4,4,4,4,4,4,4,4,4,4,4,4,4
"350",4149,-264.757894736842,4225,318.936842105263,147.042105263158,3745,-81.2736842105263,3880,4505,175.242105263158,10.1157894736842,4205,3925,-120.136842105263,37,0,2295,2531,0,4,4,4,4,4,4,4,4,4,4,4,4,4,4,4,4
"351",4170,-253.473684210526,4228,332.273684210526,155.242105263158,3761,-76.1473684210526,3901,4506,183.957894736842,15.2421052631579,4216,3924,-105.778947368421,38,0,2295,2531,0,4,4,4,4,4,4,4,4,4,4,4,4,4,4,4,4
"352",4169,-252.957894736842,4222,335.863157894737,147.042105263158,3764,-81.2736842105263,3911,4503,185.494736842105,14.2210526315789,4222,3915,-106.810526315789,39,0,2291,2535,0,4,4,4,4,4,4,4,4,4,4,4,4,4,4,4,4
"353",4166,-251.421052631579,4216,338.431578947368,141.905263157895,3770,-88.4526315789474,3911,4506,193.705263157895,11.1368421052632,4228,3911,-100.652631578947,40,0,2299,2535,0,4,4,4,4,4,4,4,4,4,4,4,4,4,4,4,4
"354",4170,-238.094736842105,4219,-342.18947368421,149.6,3780,-92.0421052631579,3915,4504,204.989473684211,12.1684210526316,4238,3914,-86.8105263157895,41,0,2291,2531,0,4,4,4,4,4,4,4,4,4,4,4,4,4,4,4,4
"355",4156,-239.115789473684,4221,-344.757894736842,156.273684210526,3772,-93.0736842105263,3915,4503,199.863157894737,14.7263157894737,4238,3912,-93.4736842105263,42,0,2295,2535,0,4,4,4,4,4,4,4,4,4,4,4,4,4,4,4,4
"356",4137,-254.505263157895,4219,331.252631578947,155.242105263158,3754,-95.6315789473684,3901,4508,184.989473684211,13.7052631578947,4223,3916,-111.421052631579,43,0,2295,2531,0,4,4,4,4,4,4,4,4,4,4,4,4,4,4,4,4
"357",4134,-257.063157894737,4223,331.252631578947,154.726315789474,3751,-97.6842105263158,3889,4502,182.421052631579,11.6526315789474,4216,3926,-117.063157894737,44,0,2295,2531,0,4,4,4,4,4,4,4,4,4,4,4,4,4,4,4,4
"358",4138,-262.18947368421,4225,322.536842105263,160.368421052632,3747,-93.5789473684211,3882,4493,175.242105263158,14.7263157894737,4209,3926,-126.294736842105,45,0,2295,2531,0,4,4,4,4,4,4,4,4,4,4,4,4,4,4,4,4
"359",4127,-276.042105263158,4225,303.042105263158,157.294736842105,3727,-93.5789473684211,3863,4497,157.294736842105,15.7578947368421,4189,3923,-147.831578947368,46,0,2291,2535,0,4,4,4,4,4,4,4,4,4,4,4,4,4,4,4,4
"360",4112,-279.115789473684,4226,302.021052631579,146.526315789474,3723,-103.326315789474,3858,4509,159.347368421053,14.2210526315789,4185,3927,-150.4,47,0,2295,2531,0,4,4,4,4,4,4,4,4,4,4,4,4,4,4,4,4
"361",4114,-268.347368421053,4232,315.347368421053,146.010526315789,3741,-107.947368421053,3878,4516,177.810526315789,20.3684210526316,4205,3926,-128.347368421053,48,0,2291,2531,0,4,4,4,4,4,4,4,4,4,4,4,4,4,4,4,4
"362",4123,-254.505263157895,4239,328.684210526316,152.168421052632,3751,-106.915789473684,3896,4513,188.578947368421,24.4736842105263,4225,3927,-108.863157894737,49,0,2295,2531,0,4,4,4,4,4,4,4,4,4,4,4,4,4,4,4,4
"363",4129,-249.884210526316,4238,334.326315789474,151.652631578947,3752,-108.968421052632,3904,4510,193.189473684211,19.3473684210526,4229,3929,-101.684210526316,50,0,2291,2531,0,4,4,4,4,4,4,4,4,4,4,4,4,4,4,4,4
"364",4136,-244.757894736842,4234,339.452631578947,148.063157894737,3761,-113.073684210526,3912,4505,201.4,13.1894736842105,4233,3919,-96.5473684210526,51,0,2295,2531,0,4,4,4,4,4,4,4,4,4,4,4,4,4,4,4,4
"365",4147,-238.094736842105,4233,344.578947368421,149.6,3769,-115.631578947368,3915,4498,206.526315789474,13.1894736842105,4241,3914,-90.4,52,0,2291,2531,0,4,4,4,4,4,4,4,4,4,4,4,4,4,4,4,4
"366",4161,-239.115789473684,4243,-342.705263157895,160.368421052632,3768,-108.452631578947,3914,4498,204.989473684211,19.3473684210526,4245,3924,-86.2947368421053,53,0,2291,2535,0,4,4,4,4,4,4,4,4,4,4,4,4,4,4,4,4
"367",4171,-232.957894736842,4252,-330.4,175.757894736842,3780,-95.6315789473684,3924,4507,215.242105263158,28.5789473684211,4252,3932,-77.0631578947368,54,0,2291,2527,0,4,4,4,4,4,4,4,4,4,4,4,4,4,4,4,4
"368",4177,-224.757894736842,4250,-324.242105263158,183.452631578947,3791,-89.4842105263158,3931,4509,223.957894736842,30.6315789473684,4260,3929,-72.4526315789474,55,0,2287,2531,0,4,4,4,4,4,4,4,4,4,4,4,4,4,4,4,4
"369",4175,-223.726315789474,4249,-328.347368421053,180.884210526316,3789,-89.4842105263158,3929,4501,220.884210526316,26.0105263157895,4260,3926,-77.5789473684211,56,0,2291,2531,0,4,4,4,4,4,4,4,4,4,4,4,4,4,4,4,4
"370",4169,-225.778947368421,4255,-329.368421052632,183.452631578947,3787,-85.8947368421053,3931,4497,216.273684210526,26.5263157894737,4257,3935,-80.6526315789474,57,0,2287,2531,0,4,4,4,4,4,4,4,4,4,4,4,4,4,4,4,4
"371",4163,-237.578947368421,4257,-339.631578947368,185.494736842105,3775,-83.8421052631579,3925,4491,202.421052631579,27.0421052631579,4244,3942,-92.4526315789474,58,0,2291,2535,0,4,4,4,4,4,4,4,4,4,4,4,4,4,4,4,4
"372",4147,-249.884210526316,4251,331.252631578947,174.726315789474,3752,-89.4842105263158,3901,4486,182.936842105263,19.8631578947368,4222,3935,-113.473684210526,59,0,2287,2535,0,4,4,4,4,4,4,4,4,4,4,4,4,4,4,4,4
"373",4128,-265.778947368421,4247,311.757894736842,166.010526315789,3729,-99.2210526315789,3878,4489,170.115789473684,15.2421052631579,4202,3925,-137.063157894737,60,0,2287,2535,0,4,4,4,4,4,4,4,4,4,4,4,4,4,4,4,4
"374",4119,-281.684210526316,4247,298.431578947368,165.494736842105,3712,-109.989473684211,3864,4490,158.831578947368,15.2421052631579,4186,3926,-160.136842105263,61,0,2295,2539,0,4,4,4,4,4,4,4,4,4,4,4,4,4,4,4,4
"375",4112,-287.315789473684,4247,290.736842105263,162.421052631579,3703,-112.557894736842,3851,4496,142.936842105263,16.2736842105263,4170,3927,-172.957894736842,62,0,2287,2535,0,4,4,4,4,4,4,4,4,4,4,4,4,4,4,4,4
"376",4105,-293.473684210526,4245,283.042105263158,157.810526315789,3693,-111.536842105263,3844,4507,135.242105263158,20.3684210526316,4161,3924,-178.094736842105,63,0,2291,2539,0,4,4,4,4,4,4,4,4,4,4,4,4,4,4,4,4
"377",4107,-284.757894736842,4248,295.863157894737,162.421052631579,3706,-113.578947368421,3860,4507,151.136842105263,27.0421052631579,4177,3927,-164.242105263158,64,0,2291,2535,414,4,4,4,4,4,4,4,4,4,4,4,4,4,4,4,4
"378",4129,-259.631578947368,4248,322.536842105263,174.726315789474,3745,-106.915789473684,3894,4503,177.810526315789,29.0842105263158,4212,3929,-128.863157894737,65,0,2287,2539,445,4,4,4,4,4,4,4,4,4,4,4,4,4,4,4,4
"379",4147,-245.778947368421,4251,337.4,180.884210526316,3766,-97.6842105263158,3912,4501,187.547368421053,26.0105263157895,4229,3927,-109.368421052632,66,0,2295,2539,523,4,4,4,4,4,4,4,4,4,4,4,4,4,4,4,4
"380",4154,-246.294736842105,4258,338.936842105263,187.547368421053,3766,-93.5789473684211,3912,4496,187.547368421053,27.0421052631579,4229,3928,-112.957894736842,67,0,2291,2539,498,4,4,4,4,4,4,4,4,4,4,4,4,4,4,4,4
"381",4169,-242.705263157895,4264,339.452631578947,196.778947368421,3772,-83.8421052631579,3920,4495,194.221052631579,30.1157894736842,4236,3931,-105.273684210526,68,0,2291,2539,521,4,4,4,4,4,4,4,4,4,4,4,4,4,4,4,4
"382",4170,-232.452631578947,4264,-344.757894736842,193.189473684211,3781,-81.2736842105263,3932,4489,202.421052631579,24.4736842105263,4249,3930,-91.4210526315789,69,0,2291,2539,490,4,4,4,4,4,4,4,4,4,4,4,4,4,4,4,4
"383",4162,-228.863157894737,4257,-341.168421052632,181.4,3784,-93.0736842105263,3933,4481,208.063157894737,16.7789473684211,4253,3926,-84.7578947368421,70,0,2299,2535,528,4,4,4,4,4,4,4,4,4,4,4,4,4,4,4,4
"384",4158,-226.810526315789,4252,-341.168421052632,176.778947368421,3784,-96.1473684210526,3928,4477,208.578947368421,16.2736842105263,4253,3926,-81.1684210526316,71,0,2291,2531,505,4,4,4,4,4,4,4,4,4,4,4,4,4,4,4,4
"385",4152,-234.505263157895,4254,343.557894736842,175.757894736842,3778,-95.6315789473684,3923,4479,200.368421052632,17.2947368421053,4246,3926,-89.8842105263158,72,0,2291,2535,523,4,4,4,4,4,4,4,4,4,4,4,4,4,4,4,4
"386",4134,-251.936842105263,4253,326.631578947368,172.168421052632,3759,-106.4,3908,4488,182.421052631579,16.2736842105263,4227,3926,-113.989473684211,73,0,2295,2527,534,4,4,4,4,4,4,4,4,4,4,4,4,4,4,4,4
"387",4114,-263.221052631579,4251,312.273684210526,168.063157894737,3742,-113.073684210526,3890,4488,163.957894736842,16.2736842105263,4203,3928,-133.989473684211,74,0,2291,2531,577,4,4,4,4,4,4,4,4,4,4,4,4,4,4,4,4
"388",4110,-276.547368421053,4250,299.452631578947,167.042105263158,3726,-106.915789473684,3876,4481,149.6,16.2736842105263,4186,3928,-149.368421052632,75,0,2295,2531,414,4,4,4,4,4,4,4,4,4,4,4,4,4,4,4,4
"389",4115,-285.778947368421,4253,289.715789473684,168.578947368421,3714,-100.252631578947,3865,4477,141.905263157895,15.2421052631579,4177,3926,-164.757894736842,76,0,2291,2535,526,4,4,4,4,4,4,4,4,4,4,4,4,4,4,4,4
"390",4123,-285.273684210526,4254,285.610526315789,171.652631578947,3711,-95.6315789473684,3864,4477,137.810526315789,15.7578947368421,4173,3925,-169.884210526316,77,0,2295,2539,463,4,4,4,4,4,4,4,4,4,4,4,4,4,4,4,4
"391",4130,-291.936842105263,4252,277.915789473684,173.705263157895,3706,-96.1473684210526,3862,4472,130.115789473684,14.2210526315789,4165,3925,-177.578947368421,78,0,2291,2543,577,4,4,4,4,4,4,4,4,4,4,4,4,4,4,4,4
"392",4134,-290.4,4255,282.536842105263,177.810526315789,3710,-98.2,3860,4470,130.631578947368,12.6842105263158,4166,3924,-181.168421052632,79,0,2295,2539,414,4,4,4,4,4,4,4,4,4,4,4,4,4,4,4,4
"393",4143,-271.936842105263,4258,305.094736842105,186.526315789474,3737,-94.6105263157895,3883,4474,153.189473684211,14.7263157894737,4191,3924,-156.547368421053,80,0,2291,2535,526,4,4,4,4,4,4,4,4,4,4,4,4,4,4,4,4
"394",4145,-254.505263157895,4260,325.094736842105,188.578947368421,3766,-92.0421052631579,3912,4479,183.957894736842,15.7578947368421,4223,3924,-121.168421052632,81,0,2295,2539,463,4,4,4,4,4,4,4,4,4,4,4,4,4,4,4,4
"395",4128,-247.315789473684,4259,335.863157894737,178.315789473684,3779,-100.768421052632,3921,4488,200.884210526316,15.2421052631579,4241,3924,-103.726315789474,82,0,2295,2535,577,4,4,4,4,4,4,4,4,4,4,4,4,4,4,4,4
"396",4110,-247.315789473684,4254,336.894736842105,174.221052631579,3775,-107.431578947368,3912,4494,201.4,17.2947368421053,4239,3926,-101.684210526316,83,0,2291,2535,414,4,4,4,4,4,4,4,4,4,4,4,4,4,4,4,4
"397",4098,-239.631578947368,4253,340.989473684211,177.810526315789,3776,-103.326315789474,3913,4489,200.368421052632,20.3684210526316,4239,3929,-93.9894736842105,84,0,2295,2531,526,4,4,4,4,4,4,4,4,4,4,4,4,4,4,4,4
"398",4104,-235.010526315789,4257,-340.652631578947,180.368421052632,3787,-96.1473684210526,3926,4480,206.010526315789,19.3473684210526,4253,3929,-83.2210526315789,85,0,2295,2535,463,4,4,4,4,4,4,4,4,4,4,4,4,4,4,4,4
"399",4113,-241.684210526316,4259,-341.168421052632,181.905263157895,3786,-96.1473684210526,3930,4474,202.421052631579,15.7578947368421,4251,3928,-92.4526315789474,86,0,2295,2531,577,4,4,4,4,4,4,4,4,4,4,4,4,4,4,4,4
"400",4107,-252.452631578947,4257,336.378947368421,186.010526315789,3768,-98.7157894736842,3915,4476,186.010526315789,14.2210526315789,4228,3926,-110.4,87,0,2291,2527,414,4,4,4,4,4,4,4,4,4,4,4,4,4,4,4,4
"401",4106,-264.757894736842,4258,318.431578947368,191.652631578947,3748,-92.0421052631579,3895,4475,167.042105263158,13.7052631578947,4209,3926,-126.294736842105,88,0,2295,2531,526,4,4,4,4,4,4,4,4,4,4,4,4,4,4,4,4
"402",4115,-272.452631578947,4260,311.252631578947,193.705263157895,3740,-86.9157894736842,3889,4469,154.726315789474,13.7052631578947,4203,3927,-142.705263157895,89,0,2295,2531,463,4,4,4,4,4,4,4,4,4,4,4,4,4,4,4,4
"403",4117,-273.989473684211,4258,310.736842105263,195.757894736842,3742,-83.8421052631579,3895,4472,153.189473684211,14.7263157894737,4196,3928,-151.421052631579,90,0,2295,2535,577,4,4,4,4,4,4,4,4,4,4,4,4,4,4,4,4
"404",4116,-267.315789473684,4263,315.347368421053,198.315789473684,3746,-75.1263157894737,3905,4476,158.315789473684,15.7578947368421,4198,3928,-145.273684210526,91,0,2299,2527,414,4,4,4,4,4,4,4,4,4,4,4,4,4,4,4,4
"405",4124,-253.473684210526,4264,331.757894736842,197.810526315789,3764,-71.5368421052632,3922,4475,173.189473684211,16.7789473684211,4219,3930,-125.778947368421,92,0,2295,2535,526,4,4,4,4,4,4,4,4,4,4,4,4,4,4,4,4
"406",4126,-249.884210526316,4257,343.557894736842,195.242105263158,3781,-77.1684210526316,3937,4483,191.136842105263,16.7789473684211,4238,3929,-112.452631578947,93,0,2295,2531,463,4,4,4,4,4,4,4,4,4,4,4,4,4,4,4,4
"407",4118,-244.242105263158,4252,-340.136842105263,194.726315789474,3785,-81.2736842105263,3943,4485,200.368421052632,14.7263157894737,4244,3926,-106.810526315789,94,0,2295,2531,577,4,4,4,4,4,4,4,4,4,4,4,4,4,4,4,4
"408",4119,-241.684210526316,4248,-339.115789473684,195.757894736842,3786,-79.7368421052632,3945,4478,201.905263157895,14.2210526315789,4244,3924,-102.705263157895,95,0,2295,2535,414,4,4,4,4,4,4,4,4,4,4,4,4,4,4,4,4
"409",4121,-244.242105263158,4251,-339.115789473684,195.242105263158,3791,-79.7368421052632,3946,4484,204.473684210526,16.7789473684211,4246,3927,-97.0631578947368,96,0,2295,2531,526,4,4,4,4,4,4,4,4,4,4,4,4,4,4,4,4
"410",4120,-233.989473684211,4258,-326.294736842105,195.757894736842,3803,-79.2210526315789,3955,4489,219.863157894737,16.2736842105263,4260,3928,-83.2210526315789,97,0,2299,2531,463,4,4,4,4,4,4,4,4,4,4,4,4,4,4,4,4
"411",4124,-225.778947368421,4260,-315.010526315789,197.294736842105,3811,-79.7368421052632,3966,4481,229.084210526316,15.2421052631579,4275,3927,-66.8105263157895,98,0,2299,2527,577,4,4,4,4,4,4,4,4,4,4,4,4,4,4,4,4
"412",4121,-223.726315789474,4258,-312.957894736842,195.757894736842,3815,-78.2,3973,4473,224.989473684211,15.7578947368421,4275,3926,-62.7052631578947,99,0,2299,2531,414,4,4,4,4,4,4,4,4,4,4,4,4,4,4,4,4
"413",4119,-222.705263157895,4261,-314.505263157895,198.831578947368,3816,-67.4315789473684,3975,4476,223.452631578947,15.2421052631579,4274,3927,-65.2736842105263,100,0,2299,2531,526,4,4,4,4,4,4,4,4,4,4,4,4,4,4,4,4
"414",4125,-219.631578947368,4266,-311.936842105263,203.957894736842,3817,-60.2526315789474,3976,4486,226.526315789474,19.8631578947368,4276,3933,-61.1684210526316,101,0,2295,2535,463,4,4,4,4,4,4,4,4,4,4,4,4,4,4,4,4
"415",4128,-221.684210526316,4268,-312.957894736842,207.547368421053,3820,-63.3263157894737,3977,4489,222.936842105263,28.0631578947368,4272,3940,-65.7789473684211,102,0,2295,2539,577,4,4,4,4,4,4,4,4,4,4,4,4,4,4,4,4
"416",4134,-235.526315789474,4267,-327.315789473684,210.631578947368,3810,-59.2210526315789,3972,4485,208.063157894737,29.0842105263158,4258,3940,-81.1684210526316,103,0,2299,2535,414,4,4,4,4,4,4,4,4,4,4,4,4,4,4,4,4
"417",4137,-239.115789473684,4269,-331.421052631579,213.189473684211,3801,-48.9684210526316,3964,4481,202.936842105263,26.5263157894737,4251,3939,-85.7789473684211,104,0,2295,2539,526,4,4,4,4,4,4,4,4,4,4,4,4,4,4,4,4
"418",4131,-243.726315789474,4272,-337.578947368421,214.221052631579,3792,-47.4315789473684,3952,4486,202.421052631579,28.5789473684211,4246,3941,-92.4526315789474,105,0,2299,2539,463,4,4,4,4,4,4,4,4,4,4,4,4,4,4,4,4
"419",4124,-257.063157894737,4272,332.789473684211,210.115789473684,3773,-52.0421052631579,3931,4487,188.063157894737,26.0105263157895,4227,3935,-117.578947368421,106,0,2295,2535,577,4,4,4,4,4,4,4,4,4,4,4,4,4,4,4,4
"420",4122,-257.063157894737,4267,331.757894736842,203.957894736842,3766,-57.1684210526316,3923,4479,180.368421052632,16.2736842105263,4219,3927,-125.273684210526,107,0,2295,2539,414,4,4,4,4,4,4,4,4,4,4,4,4,4,4,4,4
"421",4127,-252.452631578947,4263,341.505263157895,201.905263157895,3776,-60.2526315789474,3933,4472,191.136842105263,11.1368421052632,4231,3925,-109.368421052632,108,0,2295,2539,526,4,4,4,4,4,4,4,4,4,4,4,4,4,4,4,4
"422",4131,-248.347368421053,4264,-343.221052631579,201.4,3785,-62.3052631578947,3941,4471,203.452631578947,11.6526315789474,4244,3924,-101.168421052632,109,0,2299,2539,463,4,4,4,4,4,4,4,4,4,4,4,4,4,4,4,4
"423",4130,-241.684210526316,4263,-339.631578947368,202.421052631579,3788,-60.2526315789474,3950,4478,209.084210526316,14.2210526315789,4252,3923,-93.4736842105263,110,0,2295,2535,577,4,4,4,4,4,4,4,4,4,4,4,4,4,4,4,4
"424",4122,-235.010526315789,4264,-331.421052631579,202.421052631579,3797,-57.6842105263158,3962,4477,208.578947368421,12.6842105263158,4255,3925,-82.7052631578947,111,0,2299,2539,414,4,4,4,4,4,4,4,4,4,4,4,4,4,4,4,4
"425",4119,-230.4,4266,-325.778947368421,201.4,3806,-57.1684210526316,3966,4472,207.547368421053,11.1368421052632,4254,3928,-79.1157894736842,112,0,2299,2531,526,4,4,4,4,4,4,4,4,4,4,4,4,4,4,4,4
"426",4124,-236.042105263158,4266,-332.957894736842,204.473684210526,3799,-52.0421052631579,3963,4483,209.6,20.3684210526316,4250,3928,-82.7052631578947,113,0,2295,2535,463,4,4,4,4,4,4,4,4,4,4,4,4,4,4,4,4
"427",4114,-236.547368421053,4272,-333.989473684211,210.631578947368,3797,-47.4315789473684,3962,4489,209.6,28.0631578947368,4250,3931,-84.2421052631579,114,0,2299,2531,577,4,4,4,4,4,4,4,4,4,4,4,4,4,4,4,4
"428",4108,-233.473684210526,4276,-329.884210526316,214.221052631579,3802,-46.9157894736842,3962,4481,206.010526315789,21.9052631578947,4254,3936,-80.6526315789474,115,0,2299,2535,414,4,4,4,4,4,4,4,4,4,4,4,4,4,4,4,4
"429",4112,-236.547368421053,4270,-332.957894736842,211.136842105263,3798,-48.4526315789474,3959,4474,202.421052631579,14.2210526315789,4248,3931,-84.2421052631579,116,0,2299,2531,526,4,4,4,4,4,4,4,4,4,4,4,4,4,4,4,4
"430",4114,-239.631578947368,4262,-338.094736842105,205.494736842105,3793,-46.9157894736842,3958,4469,198.831578947368,13.1894736842105,4244,3924,-87.8315789473684,117,0,2295,2535,463,4,4,4,4,4,4,4,4,4,4,4,4,4,4,4,4
"431",4115,-245.778947368421,4264,344.578947368421,202.936842105263,3785,-43.3263157894737,3957,4468,193.189473684211,13.1894736842105,4243,3926,-93.4736842105263,118,0,2299,2531,577,4,4,4,4,4,4,4,4,4,4,4,4,4,4,4,4
"432",4117,-249.884210526316,4267,339.968421052632,203.452631578947,3778,-44.3578947368421,3949,4471,188.578947368421,13.1894736842105,4236,3929,-103.221052631579,119,0,2295,2531,414,4,4,4,4,4,4,4,4,4,4,4,4,4,4,4,4
"433",4108,-261.168421052632,4264,329.2,202.936842105263,3768,-45.8947368421053,3932,4468,180.368421052632,12.6842105263158,4221,3925,-117.063157894737,120,0,2299,2535,526,4,4,4,4,4,4,4,4,4,4,4,4,4,4,4,4
"434",4092,-270.915789473684,4264,317.915789473684,200.884210526316,3752,-44.3578947368421,3917,4461,166.526315789474,10.6315789473684,4206,3923,-132.452631578947,121,0,2299,2531,463,4,4,4,4,4,4,4,4,4,4,4,4,4,4,4,4
"435",4091,-268.347368421053,4266,317.4,201.905263157895,3749,-41.2736842105263,3918,4461,162.421052631579,13.7052631578947,4203,3928,-136.547368421053,122,0,2299,2535,577,4,4,4,4,4,4,4,4,4,4,4,4,4,4,4,4
"436",4095,-269.884210526316,4263,311.757894736842,199.863157894737,3751,-47.4315789473684,3921,4461,160.368421052632,9.6,4202,3921,-137.578947368421,123,0,2299,2535,414,4,4,4,4,4,4,4,4,4,4,4,4,4,4,4,4
"437",4087,-263.221052631579,4259,315.863157894737,195.757894736842,3757,-60.7684210526316,3928,4456,163.957894736842,0.368421052631579,4208,3911,-132.452631578947,124,0,2299,2539,526,4,4,4,4,4,4,4,4,4,4,4,4,4,4,4,4
"438",4088,-250.915789473684,4259,333.810526315789,200.884210526316,3777,-61.7894736842105,3948,4463,182.936842105263,7.04210526315789,4227,3916,-113.473684210526,125,0,2299,2535,463,4,4,4,4,4,4,4,4,4,4,4,4,4,4,4,4
"439",4099,-240.652631578947,4265,-340.652631578947,213.189473684211,3799,-52.5578947368421,3964,4463,198.315789473684,15.2421052631579,4243,3929,-94.5052631578947,126,0,2299,2539,577,4,4,4,4,4,4,4,4,4,4,4,4,4,4,4,4
"440",4109,-227.831578947368,4269,-330.915789473684,218.831578947368,3814,-42.3052631578947,3974,4457,206.010526315789,13.1894736842105,4256,3928,-81.1684210526316,127,0,2303,2535,414,4,4,4,4,4,4,4,4,4,4,4,4,4,4,4,4
"441",4121,-225.273684210526,4268,-331.421052631579,220.368421052632,3816,-34.0947368421053,3981,4463,212.684210526316,12.1684210526316,4264,3924,-73.9894736842105,128,0,2295,2535,526,4,4,4,4,4,4,4,4,4,4,4,4,4,4,4,4
"442",4122,-225.273684210526,4268,-334.505263157895,224.473684210526,3813,-32.0421052631579,3978,4465,214.221052631579,14.2210526315789,4265,3926,-73.9894736842105,0,0,2299,2539,414,4,4,4,4,4,4,4,4,4,4,4,4,4,4,4,4
"443",4119,-232.452631578947,4269,-344.757894736842,229.084210526316,3805,-31.5368421052632,3966,4459,204.473684210526,13.7052631578947,4253,3929,-85.7789473684211,1,0,2299,2535,445,4,4,4,4,4,4,4,4,4,4,4,4,4,4,4,4
"444",4119,-252.452631578947,4268,321.505263157895,225.494736842105,3780,-31.5368421052632,3943,4456,179.863157894737,11.6526315789474,4224,3929,-112.452631578947,2,0,2295,2543,523,4,4,4,4,4,4,4,4,4,4,4,4,4,4,4,4
"445",4108,-269.368421052632,4264,302.021052631579,213.705263157895,3752,-39.7368421052632,3916,4451,159.347368421053,4.98947368421053,4201,3920,-139.115789473684,3,0,2299,2539,498,4,4,4,4,4,4,4,4,4,4,4,4,4,4,4,4
"446",4093,-279.115789473684,4259,293.810526315789,209.6,3739,-49.9894736842105,3902,4451,151.652631578947,0.884210526315789,4192,3911,-153.989473684211,4,0,2295,2539,519,4,4,4,4,4,4,4,4,4,4,4,4,4,4,4,4
"447",4082,-276.547368421053,4263,298.936842105263,210.631578947368,3746,-49.9894736842105,3908,4454,150.115789473684,1.90526315789474,4189,3913,-153.473684210526,5,0,2299,2539,490,4,4,4,4,4,4,4,4,4,4,4,4,4,4,4,4
"448",4080,-276.547368421053,4259,299.968421052632,206.010526315789,3749,-48.9684210526316,3911,4449,149.084210526316,-0.652631578947368,4190,3914,-145.273684210526,6,0,2295,2531,528,4,4,4,4,4,4,4,4,4,4,4,4,4,4,4,4
"449",4087,-277.063157894737,4253,299.452631578947,203.957894736842,3747,-51.5368421052632,3904,4444,149.6,-2.18947368421053,4195,3911,-142.705263157895,7,0,2295,2535,505,4,4,4,4,4,4,4,4,4,4,4,4,4,4,4,4
"450",4101,-264.757894736842,4256,308.684210526316,213.189473684211,3759,-51.0210526315789,3914,4448,161.4,0.368421052631579,4207,3913,-133.989473684211,8,0,2299,2535,523,4,4,4,4,4,4,4,4,4,4,4,4,4,4,4,4
"451",4118,-253.989473684211,4260,315.347368421053,220.368421052632,3777,-48.4526315789474,3937,4450,173.189473684211,0.368421052631579,4219,3914,-118.094736842105,9,0,2291,2535,534,4,4,4,4,4,4,4,4,4,4,4,4,4,4,4,4
"452",4134,-248.863157894737,4259,323.557894736842,217.810526315789,3790,-49.4842105263158,3948,4444,177.810526315789,-0.652631578947368,4228,3910,-109.884210526316,10,0,2295,2543,577,4,4,4,4,4,4,4,4,4,4,4,4,4,4,4,4
"453",4147,-249.884210526316,4259,326.126315789474,219.347368421053,3790,-49.9894736842105,3945,4436,178.315789473684,-1.68421052631579,4229,3909,-111.421052631579,11,0,2295,2539,414,4,4,4,4,4,4,4,4,4,4,4,4,4,4,4,4
"454",4155,-247.315789473684,4262,323.042105263158,224.989473684211,3786,-45.8947368421053,3939,4431,178.315789473684,-3.72631578947368,4227,3910,-116.042105263158,12,0,2291,2547,526,4,4,4,4,4,4,4,4,4,4,4,4,4,4,4,4
"455",4166,-235.526315789474,4262,334.326315789474,229.084210526316,3797,-35.6315789473684,3950,4438,191.652631578947,-2.18947368421053,4243,3912,-103.221052631579,13,0,2295,2543,462,4,4,4,4,4,4,4,4,4,4,4,4,4,4,4,4
"456",4176,-231.936842105263,4261,344.578947368421,233.705263157895,3809,-30.5052631578947,3964,4445,201.4,1.90526315789474,4256,3911,-88.3473684210526,14,0,2295,2547,577,4,4,4,4,4,4,4,4,4,4,4,4,4,4,4,4
"457",4165,-245.778947368421,4262,329.2,233.189473684211,3790,-42.3052631578947,3945,4435,180.884210526316,0.368421052631579,4233,3910,-108.863157894737,15,0,2295,2543,414,4,4,4,4,4,4,4,4,4,4,4,4,4,4,4,4
"458",4146,-267.831578947368,4260,298.431578947368,226.526315789474,3758,-48.4526315789474,3909,4433,150.631578947368,-0.652631578947368,4197,3912,-147.831578947368,16,0,2295,2547,0,4,4,4,4,4,4,4,4,4,4,4,4,4,4,4,4
"459",4143,-275.010526315789,4264,291.757894736842,226.010526315789,3749,-44.8631578947368,3901,4441,142.421052631579,2.93684210526316,4191,3915,-158.6,17,0,2295,2543,0,4,4,4,4,4,4,4,4,4,4,4,4,4,4,4,4
"460",4142,-266.810526315789,4263,303.042105263158,227.547368421053,3761,-55.1263157894737,3913,4444,147.547368421053,3.45263157894737,4201,3914,-143.221052631579,18,0,2295,2539,0,4,4,4,4,4,4,4,4,4,4,4,4,4,4,4,4
"461",4128,-270.915789473684,4252,297.4,219.863157894737,3762,-65.8947368421053,3914,4446,147.042105263158,0.368421052631579,4198,3913,-138.6,19,0,2295,2539,0,4,4,4,4,4,4,4,4,4,4,4,4,4,4,4,4
"462",4116,-271.421052631579,4248,294.326315789474,213.705263157895,3756,-62.3052631578947,3909,4444,148.063157894737,-3.22105263157895,4196,3914,-141.168421052632,20,0,2295,2539,0,4,4,4,4,4,4,4,4,4,4,4,4,4,4,4,4
"463",4121,-261.684210526316,4253,302.536842105263,218.831578947368,3763,-59.7368421052632,3916,4444,157.810526315789,-4.7578947368421,4207,3916,-131.936842105263,21,0,2295,2539,0,4,4,4,4,4,4,4,4,4,4,4,4,4,4,4,4
"464",4121,-248.347368421053,4259,315.347368421053,222.936842105263,3778,-58.7157894736842,3932,4450,173.189473684211,1.90526315789474,4222,3921,-113.989473684211,22,0,2295,2535,0,4,4,4,4,4,4,4,4,4,4,4,4,4,4,4,4
"465",4122,-227.831578947368,4264,336.894736842105,229.084210526316,3805,-50.5052631578947,3955,4459,199.347368421053,13.7052631578947,4250,3927,-88.3473684210526,23,0,2295,2539,0,4,4,4,4,4,4,4,4,4,4,4,4,4,4,4,4
"466",4134,-213.989473684211,4264,-338.6,237.294736842105,3828,-45.3789473684211,3972,4464,218.315789473684,16.7789473684211,4274,3926,-64.7578947368421,24,0,2299,2535,0,4,4,4,4,4,4,4,4,4,4,4,4,4,4,4,4
"467",4135,-208.863157894737,4265,-334.505263157895,238.831578947368,3831,-52.0421052631579,3976,4454,217.294736842105,10.1157894736842,4277,3924,-63.7263157894737,25,0,2295,2535,0,4,4,4,4,4,4,4,4,4,4,4,4,4,4,4,4
"468",4126,-215.010526315789,4264,-340.136842105263,235.242105263158,3820,-59.2210526315789,3974,4447,208.063157894737,5.49473684210526,4264,3926,-76.0421052631579,26,0,2299,2535,0,4,4,4,4,4,4,4,4,4,4,4,4,4,4,4,4
"469",4121,-223.221052631579,4261,343.557894736842,230.631578947368,3818,-63.3263157894737,3967,4451,200.884210526316,2.42105263157895,4254,3923,-85.2736842105263,27,0,2295,2535,0,4,4,4,4,4,4,4,4,4,4,4,4,4,4,4,4
"470",4121,-226.294736842105,4258,340.989473684211,228.578947368421,3820,-66.9157894736842,3961,4454,192.684210526316,2.93684210526316,4251,3922,-90.4,28,0,2299,2535,0,4,4,4,4,4,4,4,4,4,4,4,4,4,4,4,4
"471",4122,-239.631578947368,4256,328.168421052632,231.652631578947,3803,-68.4526315789474,3951,4451,179.347368421053,6.52631578947368,4238,3925,-107.315789473684,29,0,2299,2535,0,4,4,4,4,4,4,4,4,4,4,4,4,4,4,4,4
"472",4115,-246.810526315789,4259,319.968421052632,230.115789473684,3789,-64.8631578947368,3937,4438,169.084210526316,1.90526315789474,4226,3920,-118.6,30,0,2299,2535,0,4,4,4,4,4,4,4,4,4,4,4,4,4,4,4,4
"473",4108,-248.347368421053,4258,315.347368421053,224.473684210526,3786,-61.2736842105263,3929,4428,159.347368421053,-4.7578947368421,4223,3910,-119.631578947368,31,0,2299,2531,0,4,4,4,4,4,4,4,4,4,4,4,4,4,4,4,4
"474",4111,-256.547368421053,4254,304.578947368421,224.473684210526,3776,-62.3052631578947,3921,4430,147.042105263158,-3.72631578947368,4211,3910,-133.989473684211,32,0,2299,2535,0,4,4,4,4,4,4,4,4,4,4,4,4,4,4,4,4
"475",4122,-254.505263157895,4256,307.663157894737,227.547368421053,3779,-62.3052631578947,3927,4436,154.726315789474,0.368421052631579,4210,3914,-137.063157894737,33,0,2299,2527,0,4,4,4,4,4,4,4,4,4,4,4,4,4,4,4,4
"476",4133,-239.631578947368,4256,326.631578947368,228.063157894737,3798,-62.3052631578947,3949,4437,175.242105263158,-1.68421052631579,4232,3911,-113.989473684211,34,0,2295,2523,0,4,4,4,4,4,4,4,4,4,4,4,4,4,4,4,4
"477",4135,-222.189473684211,4258,342.021052631579,226.010526315789,3816,-71.5368421052632,3969,4435,187.547368421053,-3.22105263157895,4251,3910,-93.4736842105263,35,0,2299,2531,0,4,4,4,4,4,4,4,4,4,4,4,4,4,4,4,4
"478",4134,-215.010526315789,4259,344.073684210526,224.473684210526,3825,-81.2736842105263,3975,4444,198.315789473684,-1.68421052631579,4258,3911,-86.2947368421053,36,0,2291,2531,0,4,4,4,4,4,4,4,4,4,4,4,4,4,4,4,4
"479",4134,-208.863157894737,4258,-338.094736842105,224.989473684211,3833,-82.8105263157895,3979,4444,214.221052631579,-2.18947368421053,4270,3908,-79.1157894736842,37,0,2295,2535,0,4,4,4,4,4,4,4,4,4,4,4,4,4,4,4,4
"480",4124,-203.726315789474,4256,-327.831578947368,222.421052631579,3840,-79.2210526315789,3983,4437,225.494736842105,-3.72631578947368,4282,3909,-69.3684210526316,38,0,2295,2539,0,4,4,4,4,4,4,4,4,4,4,4,4,4,4,4,4
"481",4111,-217.578947368421,4254,-344.242105263158,217.810526315789,3825,-79.7368421052632,3969,4439,213.705263157895,-2.70526315789474,4266,3910,-80.6526315789474,39,0,2295,2539,0,4,4,4,4,4,4,4,4,4,4,4,4,4,4,4,4
"482",4097,-230.915789473684,4252,323.042105263158,217.294736842105,3801,-87.4315789473684,3949,4442,191.652631578947,-1.68421052631579,4239,3910,-108.863157894737,40,0,2295,2535,0,4,4,4,4,4,4,4,4,4,4,4,4,4,4,4,4
"483",4089,-239.631578947368,4246,313.810526315789,217.294736842105,3789,-94.6105263157895,3940,4435,181.4,-2.70526315789474,4231,3907,-128.863157894737,41,0,2295,2539,0,4,4,4,4,4,4,4,4,4,4,4,4,4,4,4,4
"484",4083,-249.368421052632,4247,307.147368421053,214.726315789474,3782,-97.1684210526316,3929,4426,172.168421052632,-4.2421052631579,4224,3905,-137.578947368421,42,0,2299,2535,0,4,4,4,4,4,4,4,4,4,4,4,4,4,4,4,4
"485",4089,-246.810526315789,4254,310.736842105263,218.831578947368,3784,-98.7157894736842,3929,4434,169.084210526316,-1.68421052631579,4219,3908,-131.421052631579,43,0,2295,2535,0,4,4,4,4,4,4,4,4,4,4,4,4,4,4,4,4
"486",4108,-237.063157894737,4260,323.557894736842,230.631578947368,3799,-91.0210526315789,3948,4447,181.4,1.90526315789474,4235,3911,-113.473684210526,44,0,2295,2535,0,4,4,4,4,4,4,4,4,4,4,4,4,4,4,4,4
"487",4115,-225.778947368421,4264,333.305263157895,235.757894736842,3813,-82.3052631578947,3962,4444,192.684210526316,4.47368421052632,4250,3914,-103.221052631579,45,0,2295,2535,0,4,4,4,4,4,4,4,4,4,4,4,4,4,4,4,4
"488",4115,-223.726315789474,4263,332.273684210526,235.757894736842,3814,-85.8947368421053,3966,4442,192.168421052632,10.1157894736842,4250,3915,-101.684210526316,46,0,2295,2535,0,4,4,4,4,4,4,4,4,4,4,4,4,4,4,4,4
"489",4116,-223.221052631579,4264,337.915789473684,233.189473684211,3816,-93.5789473684211,3974,4443,194.726315789474,10.1157894736842,4251,3912,-96.0421052631579,47,0,2299,2535,0,4,4,4,4,4,4,4,4,4,4,4,4,4,4,4,4
"490",4114,-216.042105263158,4263,-341.168421052632,230.115789473684,3824,-97.1684210526316,3974,4443,203.957894736842,2.42105263157895,4258,3910,-88.8631578947368,48,0,2295,2531,0,4,4,4,4,4,4,4,4,4,4,4,4,4,4,4,4
"491",4106,-220.136842105263,4258,337.4,230.115789473684,3817,-101.273684210526,3962,4443,203.957894736842,-0.652631578947368,4253,3911,-91.4210526315789,49,0,2299,2539,0,4,4,4,4,4,4,4,4,4,4,4,4,4,4,4,4
"492",4084,-227.831578947368,4257,326.631578947368,226.526315789474,3803,-112.042105263158,3948,4441,191.136842105263,-0.136842105263158,4244,3910,-104.242105263158,50,0,2295,2535,0,4,4,4,4,4,4,4,4,4,4,4,4,4,4,4,4
"493",4073,-235.010526315789,4258,325.094736842105,223.452631578947,3802,-117.168421052632,3940,4441,182.936842105263,1.90526315789474,4238,3909,-113.473684210526,51,0,2295,2535,0,4,4,4,4,4,4,4,4,4,4,4,4,4,4,4,4
"494",4076,-229.368421052632,4261,329.2,227.042105263158,3810,-117.684210526316,3944,4446,191.136842105263,8.06315789473684,4242,3911,-108.863157894737,52,0,2299,2535,0,4,4,4,4,4,4,4,4,4,4,4,4,4,4,4,4
"495",4081,-216.547368421053,4260,339.452631578947,231.652631578947,3820,-121.789473684211,3958,4448,204.989473684211,14.7263157894737,4253,3911,-97.5789473684211,53,0,2295,2535,0,4,4,4,4,4,4,4,4,4,4,4,4,4,4,4,4
"496",4086,-217.578947368421,4258,338.936842105263,228.578947368421,3820,-125.378947368421,3966,4445,202.936842105263,11.1368421052632,4256,3909,-98.0947368421053,54,0,2299,2531,0,4,4,4,4,4,4,4,4,4,4,4,4,4,4,4,4
"497",4087,-212.452631578947,4260,340.484210526316,220.884210526316,3822,-127.431578947368,3971,4440,199.347368421053,1.4,4259,3908,-97.5789473684211,55,0,2291,2535,0,4,4,4,4,4,4,4,4,4,4,4,4,4,4,4,4
"498",4094,-204.242105263158,4262,-343.726315789474,221.905263157895,3828,-125.378947368421,3981,4439,207.547368421053,2.93684210526316,4270,3909,-83.2210526315789,56,0,2299,2539,0,4,4,4,4,4,4,4,4,4,4,4,4,4,4,4,4
"499",4103,-205.778947368421,4266,-344.242105263158,230.115789473684,3827,-122.810526315789,3979,4434,208.063157894737,7.54736842105263,4269,3908,-81.6842105263158,57,0,2295,2535,0,4,4,4,4,4,4,4,4,4,4,4,4,4,4,4,4
"500",4108,-206.294736842105,4267,343.042105263158,234.221052631579,3829,-120.252631578947,3977,4429,206.526315789474,4.98947368421053,4267,3908,-89.8842105263158,58,0,2299,2543,0,4,4,4,4,4,4,4,4,4,4,4,4,4,4,4,4
"501",4107,-207.831578947368,4264,339.968421052632,233.705263157895,3827,-118.2,3975,4433,205.494736842105,2.93684210526316,4265,3910,-93.4736842105263,59,0,2295,2543,0,4,4,4,4,4,4,4,4,4,4,4,4,4,4,4,4
"502",4089,-216.042105263158,4264,330.736842105263,231.652631578947,3811,-121.789473684211,3958,4430,190.115789473684,4.47368421052632,4249,3907,-107.315789473684,60,0,2295,2543,0,4,4,4,4,4,4,4,4,4,4,4,4,4,4,4,4
"503",4069,-233.989473684211,4263,308.168421052632,228.063157894737,3787,-127.947368421053,3938,4431,168.063157894737,5.49473684210526,4229,3903,-130.915789473684,61,0,2295,2539,0,4,4,4,4,4,4,4,4,4,4,4,4,4,4,4,4
"504",4065,-240.652631578947,4264,299.968421052632,231.136842105263,3776,-126.915789473684,3932,4438,161.4,10.1157894736842,4223,3907,-139.115789473684,62,0,2295,2543,0,4,4,4,4,4,4,4,4,4,4,4,4,4,4,4,4
"505",4075,-226.294736842105,4266,317.915789473684,235.242105263158,3794,-122.305263157895,3942,4439,176.273684210526,14.7263157894737,4237,3913,-117.578947368421,63,0,2299,2539,0,4,4,4,4,4,4,4,4,4,4,4,4,4,4,4,4
"506",4076,-220.136842105263,4262,324.578947368421,224.989473684211,3808,-129.484210526316,3948,4435,187.547368421053,11.6526315789474,4251,3903,-101.684210526316,64,0,2295,2543,414,4,4,4,4,4,4,4,4,4,4,4,4,4,4,4,4
"507",4063,-216.547368421053,4260,322.536842105263,214.726315789474,3809,-144.863157894737,3948,4439,187.042105263158,9.6,4252,3893,-101.684210526316,65,0,2299,2547,445,4,4,4,4,4,4,4,4,4,4,4,4,4,4,4,4
"508",4057,-212.452631578947,4262,322.536842105263,217.294736842105,3809,-149.989473684211,3953,4443,190.115789473684,9.6,4254,3897,-96.0421052631579,66,0,2295,2543,523,4,4,4,4,4,4,4,4,4,4,4,4,4,4,4,4
"509",4058,-207.831578947368,4265,328.168421052632,219.863157894737,3814,-146.4,3957,4440,197.294736842105,10.1157894736842,4262,3900,-86.8105263157895,67,0,2299,2543,498,4,4,4,4,4,4,4,4,4,4,4,4,4,4,4,4
"510",4063,-199.115789473684,4266,337.915789473684,217.810526315789,3824,-143.326315789474,3965,4444,203.957894736842,11.6526315789474,4272,3897,-79.6315789473684,68,0,2299,2539,519,4,4,4,4,4,4,4,4,4,4,4,4,4,4,4,4
"511",4064,-205.778947368421,4262,332.789473684211,217.810526315789,3818,-145.894736842105,3964,4445,195.242105263158,12.6842105263158,4265,3896,-85.2736842105263,69,0,2299,2539,490,4,4,4,4,4,4,4,4,4,4,4,4,4,4,4,4
"512",4056,-213.989473684211,4263,325.094736842105,217.294736842105,3806,-152.557894736842,3953,4442,187.042105263158,10.1157894736842,4254,3897,-95.0105263157895,70,0,2295,2531,528,4,4,4,4,4,4,4,4,4,4,4,4,4,4,4,4
"513",4059,-209.884210526316,4260,329.715789473684,216.778947368421,3815,-152.042105263158,3958,4445,196.273684210526,3.45263157894737,4265,3895,-87.3157894736842,71,0,2295,2535,505,4,4,4,4,4,4,4,4,4,4,4,4,4,4,4,4
"514",4069,-197.578947368421,4254,343.042105263158,213.189473684211,3834,-148.452631578947,3976,4441,207.547368421053,-3.22105263157895,4280,3892,-75.0105263157895,72,0,2299,2535,522,4,4,4,4,4,4,4,4,4,4,4,4,4,4,4,4
"515",4073,-197.578947368421,4254,343.557894736842,210.115789473684,3835,-154.094736842105,3974,4429,206.526315789474,-4.2421052631579,4275,3892,-74.5052631578947,73,0,2295,2539,534,4,4,4,4,4,4,4,4,4,4,4,4,4,4,4,4
"516",4072,-212.452631578947,4255,330.736842105263,212.168421052632,3816,-160.768421052632,3957,4432,197.294736842105,-2.18947368421053,4262,3891,-89.3684210526316,74,0,2299,2535,577,4,4,4,4,4,4,4,4,4,4,4,4,4,4,4,4
"517",4058,-220.652631578947,4252,321.505263157895,210.115789473684,3803,-164.863157894737,3943,4445,187.547368421053,-3.22105263157895,4254,3885,-107.831578947368,75,0,2291,2543,414,4,4,4,4,4,4,4,4,4,4,4,4,4,4,4,4
"518",4040,-238.6,4246,300.989473684211,200.884210526316,3784,-171.536842105263,3918,4447,172.168421052632,-7.31578947368421,4234,3878,-130.915789473684,76,0,2299,2547,526,4,4,4,4,4,4,4,4,4,4,4,4,4,4,4,4
"519",4032,-249.884210526316,4247,290.221052631579,196.778947368421,3768,-176.663157894737,3905,4448,161.4,-7.31578947368421,4218,3881,-145.778947368421,77,0,2295,2543,462,4,4,4,4,4,4,4,4,4,4,4,4,4,4,4,4
"520",4036,-235.010526315789,4255,307.663157894737,203.957894736842,3787,-169.484210526316,3926,4459,176.273684210526,0.884210526315789,4237,3892,-128.347368421053,78,0,2295,2547,577,4,4,4,4,4,4,4,4,4,4,4,4,4,4,4,4
"521",4043,-229.884210526316,4256,312.789473684211,209.084210526316,3797,-163.326315789474,3936,4464,183.957894736842,4.47368421052632,4246,3896,-116.042105263158,79,0,2295,2547,414,4,4,4,4,4,4,4,4,4,4,4,4,4,4,4,4
"522",4036,-238.6,4253,295.863157894737,200.884210526316,3777,-174.610526315789,3918,4456,166.010526315789,-1.16842105263158,4222,3886,-133.473684210526,80,0,2295,2543,526,4,4,4,4,4,4,4,4,4,4,4,4,4,4,4,4
"523",4034,-244.242105263158,4248,289.715789473684,198.315789473684,3773,-181.789473684211,3918,4458,160.368421052632,-0.136842105263158,4217,3883,-140.136842105263,81,0,2295,2543,462,4,4,4,4,4,4,4,4,4,4,4,4,4,4,4,4
"524",4039,-240.652631578947,4251,296.894736842105,208.578947368421,3785,-181.273684210526,3928,4459,167.042105263158,6.01052631578947,4229,3892,-129.884210526316,82,0,2299,2543,577,4,4,4,4,4,4,4,4,4,4,4,4,4,4,4,4
"525",4037,-247.315789473684,4253,288.684210526316,213.705263157895,3774,-184.357894736842,3914,4453,155.242105263158,4.47368421052632,4217,3898,-136.547368421053,83,0,2295,2539,414,4,4,4,4,4,4,4,4,4,4,4,4,4,4,4,4
"526",4035,-263.726315789474,4252,268.168421052632,211.136842105263,3751,-187.431578947368,3889,4446,134.221052631579,-0.652631578947368,4194,3893,-156.547368421053,84,0,2295,2539,526,4,4,4,4,4,4,4,4,4,4,4,4,4,4,4,4
"527",4030,-268.863157894737,4251,260.989473684211,208.063157894737,3743,-189.484210526316,3877,4431,122.936842105263,-4.2421052631579,4183,3891,-168.863157894737,85,0,2295,2539,462,4,4,4,4,4,4,4,4,4,4,4,4,4,4,4,4
"528",4028,-275.010526315789,4246,256.378947368421,207.042105263158,3739,-186.915789473684,3876,4430,116.778947368421,-3.22105263157895,4176,3892,-176.042105263158,86,0,2299,2535,577,4,4,4,4,4,4,4,4,4,4,4,4,4,4,4,4
"529",4031,-272.452631578947,4251,255.863157894737,206.526315789474,3741,-178.715789473684,3883,4437,119.347368421053,-1.68421052631579,4180,3893,-173.473684210526,87,0,2295,2539,414,4,4,4,4,4,4,4,4,4,4,4,4,4,4,4,4
"530",4049,-251.421052631579,4259,275.347368421053,211.136842105263,3763,-173.578947368421,3901,4432,138.315789473684,-1.16842105263158,4203,3894,-151.936842105263,88,0,2299,2539,526,4,4,4,4,4,4,4,4,4,4,4,4,4,4,4,4
"531",4076,-235.010526315789,4264,293.810526315789,222.421052631579,3782,-166.915789473684,3921,4429,157.810526315789,-1.16842105263158,4223,3893,-131.936842105263,89,0,2299,2531,462,4,4,4,4,4,4,4,4,4,4,4,4,4,4,4,4
"532",4085,-226.810526315789,4269,304.578947368421,230.115789473684,3788,-162.305263157895,3932,4438,173.189473684211,0.368421052631579,4236,3894,-121.168421052632,90,0,2295,2535,577,4,4,4,4,4,4,4,4,4,4,4,4,4,4,4,4
"533",4074,-229.884210526316,4267,300.989473684211,224.989473684211,3779,-170.505263157895,3931,4442,175.757894736842,-0.136842105263158,4237,3894,-120.136842105263,91,0,2299,2535,414,4,4,4,4,4,4,4,4,4,4,4,4,4,4,4,4
"534",4066,-227.315789473684,4263,297.4,217.294736842105,3785,-179.221052631579,3933,4437,172.684210526316,-4.7578947368421,4232,3891,-123.221052631579,92,0,2295,2539,526,4,4,4,4,4,4,4,4,4,4,4,4,4,4,4,4
"535",4080,-215.010526315789,4269,311.757894736842,220.368421052632,3810,-175.631578947368,3948,4441,185.494736842105,0.368421052631579,4246,3893,-107.831578947368,93,0,2295,2535,462,4,4,4,4,4,4,4,4,4,4,4,4,4,4,4,4
"536",4096,-215.010526315789,4275,315.347368421053,222.421052631579,3815,-174.610526315789,3950,4447,194.726315789474,7.04210526315789,4254,3897,-98.6,94,0,2295,2539,577,4,4,4,4,4,4,4,4,4,4,4,4,4,4,4,4
"537",4089,-222.705263157895,4267,303.557894736842,215.242105263158,3799,-184.357894736842,3936,4439,182.936842105263,-0.136842105263158,4237,3889,-117.063157894737,95,0,2299,2535,414,4,4,4,4,4,4,4,4,4,4,4,4,4,4,4,4
"538",4079,-236.547368421053,4258,287.147368421053,210.115789473684,3785,-185.378947368421,3922,4430,166.010526315789,-6.81052631578947,4218,3879,-134.505263157895,96,0,2295,2531,526,4,4,4,4,4,4,4,4,4,4,4,4,4,4,4,4
"539",4077,-246.294736842105,4265,279.968421052632,212.168421052632,3776,-182.810526315789,3911,4428,154.221052631579,-0.136842105263158,4210,3881,-140.136842105263,97,0,2299,2531,462,4,4,4,4,4,4,4,4,4,4,4,4,4,4,4,4
"540",4064,-254.505263157895,4265,269.2,211.652631578947,3762,-189.484210526316,3899,4427,139.347368421053,-1.16842105263158,4196,3882,-152.452631578947,98,0,2299,2527,577,4,4,4,4,4,4,4,4,4,4,4,4,4,4,4,4
"541",4045,-271.936842105263,4252,249.2,203.957894736842,3737,-197.684210526316,3877,4421,117.810526315789,-15.5263157894737,4175,3876,-176.042105263158,99,0,2295,2531,414,4,4,4,4,4,4,4,4,4,4,4,4,4,4,4,4
"542",4041,-270.915789473684,4255,253.305263157895,198.315789473684,3738,-200.252631578947,3872,4418,112.168421052632,-16.5473684210526,4175,3876,-176.042105263158,100,0,2295,2539,526,4,4,4,4,4,4,4,4,4,4,4,4,4,4,4,4
"543",4050,-253.473684210526,4264,270.736842105263,206.010526315789,3764,-197.168421052632,3896,4422,129.084210526316,-4.2421052631579,4197,3881,-152.452631578947,101,0,2295,2535,462,4,4,4,4,4,4,4,4,4,4,4,4,4,4,4,4
"544",4050,-244.757894736842,4267,276.894736842105,212.168421052632,3772,-197.684210526316,3909,4425,146.010526315789,-0.136842105263158,4210,3880,-139.115789473684,102,0,2295,2535,577,4,4,4,4,4,4,4,4,4,4,4,4,4,4,4,4
"545",4051,-240.136842105263,4269,286.126315789474,212.168421052632,3781,-197.168421052632,3912,4428,159.863157894737,-2.70526315789474,4220,3879,-125.273684210526,103,0,2291,2539,414,4,4,4,4,4,4,4,4,4,4,4,4,4,4,4,4
"546",4054,-231.421052631579,4269,299.968421052632,213.705263157895,3798,-194.610526315789,3929,4432,173.189473684211,-1.68421052631579,4237,3881,-108.347368421053,104,0,2295,2535,526,4,4,4,4,4,4,4,4,4,4,4,4,4,4,4,4
"547",4039,-235.526315789474,4267,294.326315789474,211.652631578947,3794,-203.326315789474,3927,4426,167.042105263158,-0.652631578947368,4231,3881,-116.547368421053,105,0,2291,2535,462,4,4,4,4,4,4,4,4,4,4,4,4,4,4,4,4
"548",4034,-250.4,4264,276.378947368421,215.242105263158,3779,-207.947368421053,3914,4419,151.652631578947,-1.68421052631579,4206,3879,-136.042105263158,106,0,2295,2539,577,4,4,4,4,4,4,4,4,4,4,4,4,4,4,4,4
"549",4053,-243.221052631579,4268,282.021052631579,227.042105263158,3787,-199.221052631579,3921,4419,155.242105263158,-1.68421052631579,4209,3887,-130.915789473684,107,0,2295,2535,414,4,4,4,4,4,4,4,4,4,4,4,4,4,4,4,4
"550",4064,-230.915789473684,4270,293.305263157895,229.084210526316,3795,-191.536842105263,3928,4421,166.010526315789,-1.68421052631579,4226,3896,-117.578947368421,108,0,2295,2535,526,4,4,4,4,4,4,4,4,4,4,4,4,4,4,4,4
"551",4058,-244.242105263158,4265,278.936842105263,218.831578947368,3782,-196.147368421053,3913,4414,154.726315789474,-1.68421052631579,4209,3888,-124.757894736842,109,0,2299,2539,462,4,4,4,4,4,4,4,4,4,4,4,4,4,4,4,4
"552",4051,-253.473684210526,4269,267.663157894737,214.726315789474,3768,-200.252631578947,3899,4411,140.884210526316,-1.68421052631579,4189,3877,-138.6,110,0,2295,2535,577,4,4,4,4,4,4,4,4,4,4,4,4,4,4,4,4
"553",4056,-249.368421052632,4275,273.305263157895,219.863157894737,3771,-197.168421052632,3902,4419,145.494736842105,-2.18947368421053,4195,3886,-139.631578947368,111,0,2295,2535,414,4,4,4,4,4,4,4,4,4,4,4,4,4,4,4,4
"554",4059,-244.757894736842,4275,278.431578947368,217.294736842105,3776,-198.2,3906,4425,151.136842105263,-0.652631578947368,4203,3897,-128.347368421053,112,0,2295,2539,526,4,4,4,4,4,4,4,4,4,4,4,4,4,4,4,4
"555",4050,-245.778947368421,4272,272.789473684211,211.136842105263,3768,-204.863157894737,3901,4426,144.473684210526,0.368421052631579,4200,3895,-126.294736842105,113,0,2299,2531,462,4,4,4,4,4,4,4,4,4,4,4,4,4,4,4,4
"556",4036,-257.578947368421,4271,260.989473684211,208.578947368421,3752,-208.968421052632,3888,4428,133.705263157895,-3.72631578947368,4192,3886,-141.168421052632,114,0,2291,2535,577,4,4,4,4,4,4,4,4,4,4,4,4,4,4,4,4
"557",4027,-255.010526315789,4268,265.610526315789,209.6,3757,-203.842105263158,3892,4424,139.347368421053,-4.2421052631579,4193,3880,-138.6,115,0,2299,2539,414,4,4,4,4,4,4,4,4,4,4,4,4,4,4,4,4
"558",4032,-248.347368421053,4263,266.631578947368,213.705263157895,3763,-200.252631578947,3896,4418,144.989473684211,-1.16842105263158,4194,3882,-129.884210526316,116,0,2291,2535,526,4,4,4,4,4,4,4,4,4,4,4,4,4,4,4,4
"559",4036,-262.18947368421,4263,248.684210526316,214.726315789474,3742,-204.863157894737,3878,4410,126.010526315789,-8.34736842105263,4176,3882,-153.473684210526,117,0,2291,2535,462,4,4,4,4,4,4,4,4,4,4,4,4,4,4,4,4
"560",4044,-270.915789473684,4263,244.578947368421,217.810526315789,3737,-204.357894736842,3872,4406,118.831578947368,-13.4736842105263,4170,3880,-165.273684210526,118,0,2291,2531,577,4,4,4,4,4,4,4,4,4,4,4,4,4,4,4,4
"561",4064,-252.957894736842,4265,263.042105263158,222.936842105263,3762,-199.221052631579,3895,4410,141.4,-5.77894736842105,4191,3880,-139.631578947368,119,0,2295,2535,414,4,4,4,4,4,4,4,4,4,4,4,4,4,4,4,4
"562",4073,-233.989473684211,4266,280.989473684211,224.989473684211,3780,-200.768421052632,3916,4411,161.4,-0.652631578947368,4210,3882,-118.094736842105,120,0,2295,2539,526,4,4,4,4,4,4,4,4,4,4,4,4,4,4,4,4
"563",4074,-238.6,4263,279.452631578947,227.042105263158,3777,-201.789473684211,3915,4408,158.831578947368,-3.22105263157895,4213,3881,-118.6,121,0,2295,2535,462,4,4,4,4,4,4,4,4,4,4,4,4,4,4,4,4
"564",4076,-240.652631578947,4266,275.863157894737,225.494736842105,3774,-200.768421052632,3911,4410,155.242105263158,-2.70526315789474,4212,3884,-122.189473684211,122,0,2295,2539,577,4,4,4,4,4,4,4,4,4,4,4,4,4,4,4,4
"565",4069,-238.6,4267,277.4,216.273684210526,3778,-207.947368421053,3915,4414,160.884210526316,-1.16842105263158,4212,3884,-118.094736842105,123,0,2299,2539,414,4,4,4,4,4,4,4,4,4,4,4,4,4,4,4,4
"566",4053,-248.863157894737,4263,270.736842105263,208.063157894737,3770,-213.578947368421,3910,4412,158.831578947368,-1.16842105263158,4205,3881,-121.168421052632,124,0,2295,2539,526,4,4,4,4,4,4,4,4,4,4,4,4,4,4,4,4
"567",4037,-252.452631578947,4268,260.989473684211,209.084210526316,3757,-209.989473684211,3896,4414,148.578947368421,0.368421052631579,4196,3886,-133.989473684211,125,0,2303,2539,462,4,4,4,4,4,4,4,4,4,4,4,4,4,4,4,4
"568",4034,-261.684210526316,4270,247.663157894737,213.189473684211,3744,-200.768421052632,3883,4419,132.684210526316,1.4,4185,3895,-148.863157894737,126,0,2295,2539,577,4,4,4,4,4,4,4,4,4,4,4,4,4,4,4,4
"569",4035,-277.578947368421,4268,235.863157894737,214.726315789474,3729,-198.2,3869,4412,117.294736842105,-0.136842105263158,4169,3890,-159.115789473684,127,0,2299,2543,414,4,4,4,4,4,4,4,4,4,4,4,4,4,4,4,4
"570",4036,-286.294736842105,4263,226.631578947368,213.189473684211,3714,-206.915789473684,3852,4397,107.547368421053,-7.83157894736842,4157,3878,-170.915789473684,128,0,2303,2539,526,4,4,4,4,4,4,4,4,4,4,4,4,4,4,4,4
"571",4037,-296.547368421053,4256,215.347368421053,209.6,3705,-211.536842105263,3846,4390,99.3473684210526,-15.0105263157895,4147,3874,-183.726315789474,0,0,2299,2543,414,4,4,4,4,4,4,4,4,4,4,4,4,4,4,4,4
