"","AF3","AF4","F3","F4","F7","F8","FC5","FC6","O1","O2","P7","P8","T7","T8","COUNTER","INTERPOLATED","GYROX","GYROY","RAW_CQ","CQ_CMS","CQ_F7","CQ_T7","CQ_O2","CQ_FC6","CQ_AF4","CQ_F3","CQ_P7","CQ_P8","CQ_F4","CQ_AF3","CQ_FC5","CQ_O1","CQ_T8","CQ_F8","CQ_DRL"
"1",4014,262.536842105263,4157,110.736842105263,300.368421052632,3587,-270.505263157895,3832,4245,-50.9157894736842,-165.273684210526,3987,3945,-252.957894736842,46,0,1555,1771,0,4,4,4,4,4,4,4,4,4,4,4,4,4,4,4,4
"2",4010,266.126315789474,4155,110.736842105263,298.831578947368,3591,-273.073684210526,3833,4249,-48.3473684210526,-171.936842105263,3990,3945,-244.242105263158,47,0,1551,1779,0,4,4,4,4,4,4,4,4,4,4,4,4,4,4,4,4
"3",4009,271.757894736842,4154,113.810526315789,294.221052631579,3587,-273.578947368421,3840,4244,-45.2736842105263,-180.652631578947,3990,3942,-245.273684210526,48,0,1555,1775,0,4,4,4,4,4,4,4,4,4,4,4,4,4,4,4,4
"4",4012,266.631578947368,4155,112.789473684211,298.831578947368,3587,-272.557894736842,3838,4244,-50.9157894736842,-183.221052631579,3988,3939,-248.347368421053,49,0,1555,1779,0,4,4,4,4,4,4,4,4,4,4,4,4,4,4,4,4
"5",4016,260.989473684211,4155,105.094736842105,290.115789473684,3586,-275.631578947368,3831,4242,-55.5263157894737,-182.705263157895,3986,3939,-248.347368421053,50,0,1555,1779,0,4,4,4,4,4,4,4,4,4,4,4,4,4,4,4,4
"6",4019,267.663157894737,4155,109.2,248.063157894737,3587,-271.536842105263,3836,4242,-50.9157894736842,-182.189473684211,3987,3939,-247.831578947368,51,0,1555,1783,0,4,4,4,4,4,4,4,4,4,4,4,4,4,4,4,4
"7",4020,279.452631578947,4156,123.557894736842,219.347368421053,3594,-261.273684210526,3850,4246,-41.6842105263158,-181.168421052632,3994,3939,-243.221052631579,52,0,1559,1783,0,4,4,4,4,4,4,4,4,4,4,4,4,4,4,4,4
"8",4019,274.842105263158,4154,116.378947368421,236.273684210526,3591,-260.252631578947,3851,4247,-44.7578947368421,-181.168421052632,3994,3940,-239.115789473684,53,0,1555,1783,0,4,4,4,4,4,4,4,4,4,4,4,4,4,4,4,4
"9",4019,266.126315789474,4157,103.557894736842,259.347368421053,3579,-263.326315789474,3843,4246,-51.9368421052632,-180.136842105263,3986,3942,-243.221052631579,54,0,1559,1783,0,4,4,4,4,4,4,4,4,4,4,4,4,4,4,4,4
"10",4019,264.073684210526,4164,104.073684210526,263.452631578947,3572,-260.768421052632,3838,4246,-50.9157894736842,-172.957894736842,3985,3942,-246.810526315789,55,0,1555,1779,0,4,4,4,4,4,4,4,4,4,4,4,4,4,4,4,4
"11",4019,265.610526315789,4163,110.221052631579,267.547368421053,3575,-259.221052631579,3838,4249,-47.3157894736842,-166.294736842105,3986,3942,-242.705263157895,56,0,1555,1787,0,4,4,4,4,4,4,4,4,4,4,4,4,4,4,4,4
"12",4020,267.147368421053,4155,111.252631578947,273.705263157895,3577,-261.273684210526,3843,4250,-48.3473684210526,-166.294736842105,3988,3942,-243.726315789474,57,0,1559,1783,0,4,4,4,4,4,4,4,4,4,4,4,4,4,4,4,4
"13",4024,270.736842105263,4157,114.842105263158,276.273684210526,3584,-258.715789473684,3847,4249,-48.8631578947368,-161.684210526316,3989,3944,-245.778947368421,58,0,1559,1787,0,4,4,4,4,4,4,4,4,4,4,4,4,4,4,4,4
"14",4030,275.347368421053,4164,119.968421052632,277.294736842105,3588,-256.147368421053,3847,4248,-42.7052631578947,-157.578947368421,3991,3945,-238.094736842105,59,0,1559,1783,0,4,4,4,4,4,4,4,4,4,4,4,4,4,4,4,4
"15",4027,269.2,4158,115.347368421053,275.242105263158,3577,-258.715789473684,3846,4250,-45.7789473684211,-161.168421052632,3988,3943,-235.010526315789,60,0,1559,1787,0,4,4,4,4,4,4,4,4,4,4,4,4,4,4,4,4
"16",4022,263.557894736842,4158,114.842105263158,272.684210526316,3569,-259.736842105263,3845,4250,-49.3684210526316,-161.684210526316,3988,3942,-237.578947368421,61,0,1563,1783,0,4,4,4,4,4,4,4,4,4,4,4,4,4,4,4,4
"17",4026,267.147368421053,4163,120.989473684211,275.242105263158,3570,-257.168421052632,3845,4250,-41.6842105263158,-156.042105263158,3990,3942,-232.452631578947,62,0,1555,1783,0,4,4,4,4,4,4,4,4,4,4,4,4,4,4,4,4
"18",4032,276.894736842105,4162,127.147368421053,275.242105263158,3578,-258.2,3853,4250,-33.4736842105263,-156.042105263158,3998,3941,-226.810526315789,63,0,1563,1787,0,4,4,4,4,4,4,4,4,4,4,4,4,4,4,4,4
"19",4034,280.484210526316,4160,126.631578947368,275.242105263158,3587,-257.168421052632,3859,4250,-32.4526315789474,-159.115789473684,4004,3941,-226.810526315789,64,0,1559,1783,389,4,4,4,4,4,4,4,4,4,4,4,4,4,4,4,4
"20",4036,275.863157894737,4161,126.631578947368,282.421052631579,3580,-251.021052631579,3854,4249,-34.5052631578947,-155.526315789474,4001,3943,-228.347368421053,65,0,1559,1783,481,4,4,4,4,4,4,4,4,4,4,4,4,4,4,4,4
"21",4036,275.347368421053,4165,132.789473684211,288.578947368421,3571,-247.431578947368,3850,4254,-37.0631578947368,-151.421052631579,3998,3944,-226.294736842105,66,0,1559,1783,433,4,4,4,4,4,4,4,4,4,4,4,4,4,4,4,4
"22",4036,282.536842105263,4166,138.936842105263,288.063157894737,3583,-247.431578947368,3861,4259,-31.4210526315789,-150.915789473684,4006,3943,-217.578947368421,67,0,1559,1783,507,4,4,4,4,4,4,4,4,4,4,4,4,4,4,4,4
"23",4039,290.221052631579,4167,144.578947368421,287.547368421053,3595,-248.968421052632,3872,4259,-18.0947368421053,-150.915789473684,4017,3944,-206.294736842105,68,0,1555,1775,510,4,4,4,4,4,4,4,4,4,4,4,4,4,4,4,4
"24",4044,289.2,4165,141.505263157895,289.6,3589,-251.536842105263,3869,4258,-19.6315789473684,-149.884210526316,4013,3945,-208.347368421053,69,0,1559,1779,502,4,4,4,4,4,4,4,4,4,4,4,4,4,4,4,4
"25",4047,287.147368421053,4167,136.894736842105,288.578947368421,3586,-249.989473684211,3863,4261,-28.8631578947368,-149.368421052632,4006,3944,-215.010526315789,70,0,1559,1775,473,4,4,4,4,4,4,4,4,4,4,4,4,4,4,4,4
"26",4047,287.663157894737,4168,137.4,289.084210526316,3591,-245.378947368421,3866,4263,-26.8105263157895,-149.368421052632,4010,3945,-214.505263157895,71,0,1555,1775,486,4,4,4,4,4,4,4,4,4,4,4,4,4,4,4,4
"27",4046,289.715789473684,4168,142.021052631579,289.6,3592,-244.863157894737,3868,4262,-23.7263157894737,-147.831578947368,4014,3945,-212.452631578947,72,0,1559,1775,525,4,4,4,4,4,4,4,4,4,4,4,4,4,4,4,4
"28",4043,287.663157894737,4168,139.968421052632,285.494736842105,3589,-248.452631578947,3864,4262,-30.9157894736842,-147.831578947368,4010,3942,-213.989473684211,73,0,1555,1775,489,4,4,4,4,4,4,4,4,4,4,4,4,4,4,4,4
"29",4044,285.094736842105,4167,144.073684210526,283.452631578947,3583,-248.968421052632,3866,4262,-31.4210526315789,-149.368421052632,4012,3942,-213.989473684211,74,0,1555,1775,544,4,4,4,4,4,4,4,4,4,4,4,4,4,4,4,4
"30",4050,289.715789473684,4168,155.863157894737,285.494736842105,3588,-245.894736842105,3878,4262,-19.1157894736842,-149.368421052632,4020,3943,-205.273684210526,75,0,1555,1775,461,4,4,4,4,4,4,4,4,4,4,4,4,4,4,4,4
"31",4050,299.452631578947,4166,160.989473684211,281.4,3602,-244.357894736842,3882,4262,-15.0105263157895,-150.4,4025,3941,-196.042105263158,76,0,1555,1775,528,4,4,4,4,4,4,4,4,4,4,4,4,4,4,4,4
"32",4049,302.021052631579,4165,162.536842105263,278.315789473684,3605,-247.947368421053,3880,4261,-14.5052631578947,-151.936842105263,4027,3939,-196.042105263158,77,0,1559,1775,478,4,4,4,4,4,4,4,4,4,4,4,4,4,4,4,4
"33",4050,304.073684210526,4169,166.126315789474,286.526315789474,3602,-245.894736842105,3886,4262,-7.31578947368421,-149.368421052632,4030,3942,-196.547368421053,78,0,1555,1771,544,4,4,4,4,4,4,4,4,4,4,4,4,4,4,4,4
"34",4052,315.347368421053,4175,171.252631578947,287.042105263158,3613,-241.273684210526,3897,4265,0.884210526315789,-148.347368421053,4039,3942,-185.778947368421,79,0,1555,1775,461,4,4,4,4,4,4,4,4,4,4,4,4,4,4,4,4
"35",4054,320.484210526316,4172,170.221052631579,275.757894736842,3623,-241.273684210526,3900,4266,2.42105263157895,-146.294736842105,4045,3941,-175.010526315789,80,0,1555,1771,528,4,4,4,4,4,4,4,4,4,4,4,4,4,4,4,4
"36",4055,312.789473684211,4167,164.073684210526,270.115789473684,3613,-242.305263157895,3895,4265,-0.652631578947368,-143.726315789474,4037,3943,-186.810526315789,81,0,1555,1771,478,4,4,4,4,4,4,4,4,4,4,4,4,4,4,4,4
"37",4053,308.168421052632,4168,159.968421052632,272.684210526316,3603,-240.768421052632,3892,4266,-6.29473684210526,-145.273684210526,4031,3944,-199.631578947368,82,0,1559,1771,544,4,4,4,4,4,4,4,4,4,4,4,4,4,4,4,4
"38",4057,314.842105263158,4170,171.757894736842,275.757894736842,3610,-240.768421052632,3897,4267,-4.2421052631579,-148.863157894737,4043,3943,-188.863157894737,83,0,1555,1771,461,4,4,4,4,4,4,4,4,4,4,4,4,4,4,4,4
"39",4058,309.715789473684,4167,174.842105263158,273.18947368421,3611,-243.326315789474,3895,4264,-1.16842105263158,-148.863157894737,4041,3941,-186.294736842105,84,0,1559,1775,528,4,4,4,4,4,4,4,4,4,4,4,4,4,4,4,4
"40",4053,296.894736842105,4164,157.4,270.115789473684,3595,-243.842105263158,3881,4264,-13.4736842105263,-147.315789473684,4021,3941,-209.884210526316,85,0,1555,1771,478,4,4,4,4,4,4,4,4,4,4,4,4,4,4,4,4
"41",4054,295.863157894737,4165,147.663157894737,272.168421052632,3590,-240.768421052632,3873,4272,-24.2421052631579,-145.273684210526,4014,3943,-220.136842105263,86,0,1555,1775,544,4,4,4,4,4,4,4,4,4,4,4,4,4,4,4,4
"42",4060,303.557894736842,4168,156.894736842105,275.757894736842,3605,-239.221052631579,3884,4278,-15.5263157894737,-140.136842105263,4027,3943,-204.242105263158,87,0,1555,1775,461,4,4,4,4,4,4,4,4,4,4,4,4,4,4,4,4
"43",4060,313.305263157895,4168,168.684210526316,274.221052631579,3612,-240.252631578947,3897,4277,-1.16842105263158,-140.136842105263,4039,3943,-188.863157894737,88,0,1555,1775,528,4,4,4,4,4,4,4,4,4,4,4,4,4,4,4,4
"44",4058,315.863157894737,4167,172.273684210526,273.705263157895,3606,-241.273684210526,3898,4270,0.884210526315789,-145.273684210526,4041,3942,-187.315789473684,89,0,1559,1775,478,4,4,4,4,4,4,4,4,4,4,4,4,4,4,4,4
"45",4058,310.736842105263,4168,169.715789473684,271.136842105263,3604,-242.810526315789,3892,4268,-6.29473684210526,-148.863157894737,4032,3941,-192.957894736842,90,0,1555,1775,544,4,4,4,4,4,4,4,4,4,4,4,4,4,4,4,4
"46",4058,303.042105263158,4164,160.484210526316,263.452631578947,3605,-243.326315789474,3889,4271,-16.5473684210526,-149.368421052632,4024,3941,-198.6,91,0,1559,1771,461,4,4,4,4,4,4,4,4,4,4,4,4,4,4,4,4
"47",4058,305.094736842105,4162,160.484210526316,258.315789473684,3601,-242.810526315789,3892,4273,-13.9894736842105,-148.347368421053,4031,3938,-198.094736842105,92,0,1555,1775,528,4,4,4,4,4,4,4,4,4,4,4,4,4,4,4,4
"48",4058,309.715789473684,4161,170.736842105263,257.294736842105,3604,-243.326315789474,3893,4273,-4.7578947368421,-149.368421052632,4038,3936,-188.863157894737,93,0,1559,1775,478,4,4,4,4,4,4,4,4,4,4,4,4,4,4,4,4
"49",4058,311.757894736842,4162,173.305263157895,257.810526315789,3608,-244.863157894737,3895,4277,-1.68421052631579,-149.884210526316,4037,3939,-180.652631578947,94,0,1559,1771,544,4,4,4,4,4,4,4,4,4,4,4,4,4,4,4,4
"50",4059,310.221052631579,4166,167.147368421053,264.473684210526,3606,-243.842105263158,3895,4281,-6.29473684210526,-145.273684210526,4034,3944,-187.831578947368,95,0,1559,1775,461,4,4,4,4,4,4,4,4,4,4,4,4,4,4,4,4
"51",4062,308.168421052632,4171,168.684210526316,272.684210526316,3604,-240.768421052632,3893,4280,-8.86315789473684,-142.189473684211,4032,3943,-196.042105263158,96,0,1559,1775,528,4,4,4,4,4,4,4,4,4,4,4,4,4,4,4,4
"52",4061,305.094736842105,4169,168.168421052632,272.168421052632,3601,-241.273684210526,3887,4280,-12.4526315789474,-145.778947368421,4029,3941,-197.063157894737,97,0,1559,1775,478,4,4,4,4,4,4,4,4,4,4,4,4,4,4,4,4
"53",4051,292.789473684211,4161,156.894736842105,264.989473684211,3591,-244.863157894737,3877,4281,-26.2947368421053,-149.368421052632,4016,3941,-211.936842105263,98,0,1555,1771,544,4,4,4,4,4,4,4,4,4,4,4,4,4,4,4,4
"54",4052,291.252631578947,4163,149.715789473684,261.905263157895,3583,-244.863157894737,3873,4279,-31.4210526315789,-149.884210526316,4012,3941,-222.705263157895,99,0,1555,1775,461,4,4,4,4,4,4,4,4,4,4,4,4,4,4,4,4
"55",4065,302.536842105263,4167,154.842105263158,269.084210526316,3592,-240.252631578947,3878,4281,-21.6842105263158,-146.294736842105,4026,3942,-205.273684210526,100,0,1563,1775,528,4,4,4,4,4,4,4,4,4,4,4,4,4,4,4,4
"56",4068,309.715789473684,4169,166.126315789474,272.684210526316,3606,-239.736842105263,3889,4281,-8.34736842105263,-142.189473684211,4038,3942,-191.936842105263,101,0,1555,1771,478,4,4,4,4,4,4,4,4,4,4,4,4,4,4,4,4
"57",4063,307.147368421053,4168,165.610526315789,268.063157894737,3603,-241.789473684211,3890,4283,-7.31578947368421,-140.136842105263,4036,3943,-196.042105263158,102,0,1559,1775,544,4,4,4,4,4,4,4,4,4,4,4,4,4,4,4,4
"58",4064,304.578947368421,4166,158.431578947368,263.957894736842,3592,-241.273684210526,3882,4282,-15.0105263157895,-143.221052631579,4032,3942,-198.094736842105,103,0,1559,1775,461,4,4,4,4,4,4,4,4,4,4,4,4,4,4,4,4
"59",4064,302.536842105263,4165,156.378947368421,264.989473684211,3591,-241.789473684211,3878,4278,-19.6315789473684,-148.863157894737,4028,3940,-203.221052631579,104,0,1555,1775,528,4,4,4,4,4,4,4,4,4,4,4,4,4,4,4,4
"60",4063,303.557894736842,4168,157.915789473684,268.063157894737,3594,-240.768421052632,3883,4280,-16.5473684210526,-147.315789473684,4027,3941,-210.915789473684,105,0,1555,1771,478,4,4,4,4,4,4,4,4,4,4,4,4,4,4,4,4
"61",4065,302.536842105263,4171,154.842105263158,269.084210526316,3592,-238.715789473684,3882,4284,-15.0105263157895,-141.684210526316,4027,3943,-213.989473684211,106,0,1559,1775,544,4,4,4,4,4,4,4,4,4,4,4,4,4,4,4,4
"62",4065,296.378947368421,4170,156.378947368421,267.547368421053,3588,-238.2,3877,4283,-23.2210526315789,-141.168421052632,4023,3943,-211.936842105263,107,0,1559,1767,461,4,4,4,4,4,4,4,4,4,4,4,4,4,4,4,4
"63",4065,299.968421052632,4170,165.610526315789,265.494736842105,3589,-240.768421052632,3879,4281,-22.1894736842105,-143.726315789474,4026,3942,-204.242105263158,108,0,1555,1771,528,4,4,4,4,4,4,4,4,4,4,4,4,4,4,4,4
"64",4065,305.094736842105,4169,166.126315789474,264.473684210526,3592,-241.273684210526,3882,4282,-17.5789473684211,-140.652631578947,4032,3944,-198.094736842105,109,0,1559,1771,478,4,4,4,4,4,4,4,4,4,4,4,4,4,4,4,4
"65",4062,298.431578947368,4169,160.989473684211,261.905263157895,3590,-239.736842105263,3881,4281,-23.7263157894737,-140.136842105263,4028,3941,-208.347368421053,110,0,1555,1771,544,4,4,4,4,4,4,4,4,4,4,4,4,4,4,4,4
"66",4059,287.147368421053,4166,156.378947368421,258.315789473684,3581,-242.810526315789,3869,4279,-36.0421052631579,-143.726315789474,4012,3931,-225.778947368421,111,0,1555,1771,461,4,4,4,4,4,4,4,4,4,4,4,4,4,4,4,4
"67",4060,289.715789473684,4161,160.484210526316,255.242105263158,3572,-247.947368421053,3861,4278,-39.1157894736842,-144.242105263158,4010,3933,-226.294736842105,112,0,1559,1771,528,4,4,4,4,4,4,4,4,4,4,4,4,4,4,4,4
"68",4059,292.273684210526,4164,164.578947368421,255.757894736842,3572,-247.431578947368,3869,4279,-33.4736842105263,-141.684210526316,4017,3941,-217.063157894737,113,0,1559,1775,478,4,4,4,4,4,4,4,4,4,4,4,4,4,4,4,4
"69",4060,294.326315789474,4167,165.610526315789,259.347368421053,3583,-244.357894736842,3877,4279,-30.9157894736842,-139.115789473684,4017,3937,-213.473684210526,114,0,1555,1771,544,4,4,4,4,4,4,4,4,4,4,4,4,4,4,4,4
"70",4061,298.936842105263,4166,168.684210526316,258.831578947368,3590,-245.378947368421,3878,4278,-32.9578947368421,-137.063157894737,4019,3936,-214.505263157895,115,0,1559,1775,461,4,4,4,4,4,4,4,4,4,4,4,4,4,4,4,4
"71",4060,300.484210526316,4166,169.715789473684,258.315789473684,3588,-246.4,3878,4279,-30.4,-137.063157894737,4026,3941,-213.473684210526,116,0,1555,1775,528,4,4,4,4,4,4,4,4,4,4,4,4,4,4,4,4
"72",4062,302.021052631579,4168,168.684210526316,261.905263157895,3589,-243.842105263158,3880,4281,-21.1684210526316,-136.547368421053,4032,3942,-208.863157894737,117,0,1559,1771,478,4,4,4,4,4,4,4,4,4,4,4,4,4,4,4,4
"73",4063,303.557894736842,4167,170.736842105263,260.884210526316,3590,-242.810526315789,3880,4280,-20.6526315789474,-136.042105263158,4031,3940,-209.368421052632,118,0,1555,1775,544,4,4,4,4,4,4,4,4,4,4,4,4,4,4,4,4
"74",4060,302.021052631579,4168,171.252631578947,256.778947368421,3581,-243.842105263158,3877,4279,-30.9157894736842,-138.094736842105,4026,3934,-212.957894736842,119,0,1559,1771,461,4,4,4,4,4,4,4,4,4,4,4,4,4,4,4,4
"75",4057,295.347368421053,4167,158.431578947368,254.726315789474,3572,-245.894736842105,3869,4278,-35.0105263157895,-138.094736842105,4019,3928,-216.547368421053,120,0,1555,1775,528,4,4,4,4,4,4,4,4,4,4,4,4,4,4,4,4
"76",4057,294.842105263158,4166,154.842105263158,251.652631578947,3576,-246.4,3866,4279,-31.4210526315789,-137.063157894737,4019,3928,-221.168421052632,121,0,1559,1775,478,4,4,4,4,4,4,4,4,4,4,4,4,4,4,4,4
"77",4059,291.252631578947,4168,158.936842105263,250.631578947368,3577,-243.326315789474,3868,4279,-36.5473684210526,-137.578947368421,4018,3928,-225.778947368421,122,0,1555,1771,544,4,4,4,4,4,4,4,4,4,4,4,4,4,4,4,4
"78",4061,285.094736842105,4167,157.4,251.652631578947,3572,-245.378947368421,3864,4279,-45.2736842105263,-137.063157894737,4013,3927,-227.831578947368,123,0,1555,1775,461,4,4,4,4,4,4,4,4,4,4,4,4,4,4,4,4
"79",4059,288.684210526316,4166,156.378947368421,250.631578947368,3572,-249.484210526316,3862,4278,-40.6526315789474,-138.094736842105,4015,3929,-228.347368421053,124,0,1559,1771,528,4,4,4,4,4,4,4,4,4,4,4,4,4,4,4,4
"80",4062,296.894736842105,4169,162.021052631579,252.168421052632,3578,-245.378947368421,3871,4278,-31.9368421052632,-139.115789473684,4024,3929,-224.757894736842,125,0,1555,1775,478,4,4,4,4,4,4,4,4,4,4,4,4,4,4,4,4
"81",4063,293.305263157895,4171,157.4,253.705263157895,3577,-245.378947368421,3870,4278,-35.5263157894737,-136.547368421053,4022,3928,-226.294736842105,126,0,1555,1771,544,4,4,4,4,4,4,4,4,4,4,4,4,4,4,4,4
"82",4055,278.936842105263,4165,143.557894736842,250.631578947368,3562,-255.631578947368,3852,4278,-48.8631578947368,-135.010526315789,4007,3928,-238.6,127,0,1555,1775,461,4,4,4,4,4,4,4,4,4,4,4,4,4,4,4,4
"83",4053,279.968421052632,4162,145.610526315789,246.526315789474,3557,-260.252631578947,3848,4279,-52.9578947368421,-136.042105263158,4003,3929,-241.168421052632,128,0,1559,1771,528,4,4,4,4,4,4,4,4,4,4,4,4,4,4,4,4
"84",4060,290.736842105263,4167,155.863157894737,247.042105263158,3572,-254.610526315789,3864,4279,-42.1894736842105,-135.526315789474,4016,3929,-226.810526315789,0,0,1555,1771,389,4,4,4,4,4,4,4,4,4,4,4,4,4,4,4,4
"85",4063,294.842105263158,4170,159.968421052632,249.6,3581,-252.042105263158,3870,4278,-33.9894736842105,-134.505263157895,4024,3930,-223.221052631579,1,0,1559,1771,481,4,4,4,4,4,4,4,4,4,4,4,4,4,4,4,4
"86",4058,287.663157894737,4167,154.842105263158,246.010526315789,3572,-256.147368421053,3855,4278,-45.7789473684211,-135.526315789474,4014,3930,-236.547368421053,2,0,1555,1771,433,4,4,4,4,4,4,4,4,4,4,4,4,4,4,4,4
"87",4058,281.505263157895,4165,147.147368421053,239.347368421053,3561,-258.715789473684,3848,4278,-53.4736842105263,-137.063157894737,4007,3929,-243.221052631579,3,0,1555,1775,509,4,4,4,4,4,4,4,4,4,4,4,4,4,4,4,4
"88",4064,279.452631578947,4168,143.042105263158,244.989473684211,3559,-256.147368421053,3852,4278,-48.3473684210526,-137.063157894737,4006,3930,-240.136842105263,4,0,1559,1771,510,4,4,4,4,4,4,4,4,4,4,4,4,4,4,4,4
"89",4065,277.4,4169,144.073684210526,258.831578947368,3561,-249.484210526316,3848,4278,-51.9368421052632,-135.526315789474,4001,3930,-246.294736842105,5,0,1555,1775,502,4,4,4,4,4,4,4,4,4,4,4,4,4,4,4,4
"90",4062,263.557894736842,4168,133.305263157895,259.863157894737,3547,-246.915789473684,3832,4278,-70.9157894736842,-138.6,3986,3927,-266.294736842105,6,0,1555,1771,473,4,4,4,4,4,4,4,4,4,4,4,4,4,4,4,4
"91",4057,243.042105263158,4168,110.221052631579,256.778947368421,3517,-245.894736842105,3808,4278,-93.9894736842105,-142.705263157895,3963,3927,-286.294736842105,7,0,1555,1775,486,4,4,4,4,4,4,4,4,4,4,4,4,4,4,4,4
"92",4058,228.168421052632,4168,93.3052631578947,262.421052631579,3496,-245.378947368421,3787,4278,-110.915789473684,-140.652631578947,3942,3928,-303.726315789474,8,0,1559,1771,525,4,4,4,4,4,4,4,4,4,4,4,4,4,4,4,4
"93",4061,213.810526315789,4168,76.8947368421053,268.578947368421,3484,-245.378947368421,3772,4278,-127.315789473684,-140.652631578947,3924,3929,-329.884210526316,9,0,1551,1775,488,4,4,4,4,4,4,4,4,4,4,4,4,4,4,4,4
"94",4059,200.484210526316,4168,63.0421052631579,271.136842105263,3470,-245.378947368421,3757,4278,-142.705263157895,-145.273684210526,3908,3929,340.484210526316,10,0,1559,1775,544,4,4,4,4,4,4,4,4,4,4,4,4,4,4,4,4
"95",4057,189.2,4167,53.3052631578947,272.168421052632,3453,-243.326315789474,3741,4278,-155.010526315789,-141.684210526316,3895,3929,336.378947368421,11,0,1555,1771,460,4,4,4,4,4,4,4,4,4,4,4,4,4,4,4,4
"96",4058,176.894736842105,4167,45.0947368421053,272.684210526316,3438,-241.789473684211,3729,4279,-161.684210526316,-136.547368421053,3885,3930,329.2,12,0,1555,1775,526,4,4,4,4,4,4,4,4,4,4,4,4,4,4,4,4
"97",4059,167.147368421053,4168,33.3052631578947,271.652631578947,3429,-242.810526315789,3722,4281,-174.505263157895,-141.168421052632,3871,3929,312.273684210526,13,0,1559,1771,478,4,4,4,4,4,4,4,4,4,4,4,4,4,4,4,4
"98",4057,168.168421052632,4167,29.7157894736842,272.684210526316,3428,-243.326315789474,3718,4281,-184.242105263158,-143.221052631579,3868,3929,304.578947368421,14,0,1555,1775,544,4,4,4,4,4,4,4,4,4,4,4,4,4,4,4,4
"99",4057,173.810526315789,4168,35.3473684210526,273.705263157895,3430,-242.305263157895,3723,4281,-175.526315789474,-136.547368421053,3876,3932,313.305263157895,15,0,1555,1775,460,4,4,4,4,4,4,4,4,4,4,4,4,4,4,4,4
"100",4059,175.863157894737,4170,40.9894736842105,274.726315789474,3435,-239.221052631579,3731,4283,-165.778947368421,-132.957894736842,3882,3938,320.989473684211,16,0,1559,1775,0,4,4,4,4,4,4,4,4,4,4,4,4,4,4,4,4
"101",4059,173.305263157895,4172,35.3473684210526,274.221052631579,3435,-238.2,3727,4283,-173.473684210526,-134.505263157895,3876,3939,314.326315789474,17,0,1559,1771,0,4,4,4,4,4,4,4,4,4,4,4,4,4,4,4,4
"102",4059,166.126315789474,4170,23.0421052631579,273.18947368421,3424,-242.305263157895,3712,4281,-184.242105263158,-134.505263157895,3865,3938,302.536842105263,18,0,1555,1775,0,4,4,4,4,4,4,4,4,4,4,4,4,4,4,4,4
"103",4060,169.2,4170,27.1473684210526,273.705263157895,3425,-243.842105263158,3716,4281,-178.094736842105,-133.989473684211,3867,3938,304.578947368421,19,0,1563,1771,0,4,4,4,4,4,4,4,4,4,4,4,4,4,4,4,4
"104",4061,182.021052631579,4171,40.9894736842105,275.242105263158,3443,-236.147368421053,3736,4286,-164.757894736842,-133.473684210526,3883,3940,319.452631578947,20,0,1555,1771,0,4,4,4,4,4,4,4,4,4,4,4,4,4,4,4,4
"105",4063,192.273684210526,4173,46.1263157894737,276.273684210526,3455,-227.947368421053,3747,4290,-155.010526315789,-131.936842105263,3897,3941,333.305263157895,21,0,1555,1775,0,4,4,4,4,4,4,4,4,4,4,4,4,4,4,4,4
"106",4063,190.221052631579,4173,45.0947368421053,275.757894736842,3450,-227.947368421053,3744,4289,-151.936842105263,-131.421052631579,3896,3941,335.347368421053,22,0,1559,1771,0,4,4,4,4,4,4,4,4,4,4,4,4,4,4,4,4
"107",4059,186.631578947368,4171,50.7368421052632,272.168421052632,3448,-230.505263157895,3745,4289,-153.473684210526,-132.452631578947,3894,3940,333.810526315789,23,0,1559,1771,0,4,4,4,4,4,4,4,4,4,4,4,4,4,4,4,4
"108",4058,192.273684210526,4169,57.9157894736842,272.684210526316,3457,-228.968421052632,3750,4292,-150.915789473684,-130.4,3899,3941,340.989473684211,24,0,1559,1771,0,4,4,4,4,4,4,4,4,4,4,4,4,4,4,4,4
"109",4058,204.578947368421,4169,66.6315789473684,275.242105263158,3467,-227.431578947368,3757,4294,-140.652631578947,-127.831578947368,3912,3943,-337.578947368421,25,0,1559,1775,0,4,4,4,4,4,4,4,4,4,4,4,4,4,4,4,4
"110",4058,216.378947368421,4170,78.9368421052632,254.726315789474,3481,-227.947368421053,3773,4293,-127.831578947368,-126.810526315789,3927,3942,-324.757894736842,26,0,1559,1771,0,4,4,4,4,4,4,4,4,4,4,4,4,4,4,4,4
"111",4063,222.021052631579,4171,83.0421052631579,237.810526315789,3490,-222.810526315789,3788,4294,-117.578947368421,-123.221052631579,3933,3942,-317.578947368421,27,0,1555,1771,0,4,4,4,4,4,4,4,4,4,4,4,4,4,4,4,4
"112",4068,217.4,4177,76.3789473684211,257.810526315789,3485,-218.2,3780,4298,-119.631578947368,-118.094736842105,3929,3950,-323.221052631579,28,0,1555,1771,0,4,4,4,4,4,4,4,4,4,4,4,4,4,4,4,4
"113",4067,212.273684210526,4184,72.2736842105263,279.863157894737,3477,-220.768421052632,3769,4302,-127.315789473684,-115.010526315789,3926,3958,-326.810526315789,29,0,1559,1771,0,4,4,4,4,4,4,4,4,4,4,4,4,4,4,4,4
"114",4065,224.073684210526,4184,82.0210526315789,278.831578947368,3488,-219.736842105263,3785,4304,-117.063157894737,-112.452631578947,3937,3957,-313.473684210526,30,0,1555,1771,0,4,4,4,4,4,4,4,4,4,4,4,4,4,4,4,4
"115",4067,238.431578947368,4182,93.8105263157895,278.315789473684,3507,-213.578947368421,3805,4308,-101.684210526316,-106.810526315789,3954,3956,-299.115789473684,31,0,1559,1775,0,4,4,4,4,4,4,4,4,4,4,4,4,4,4,4,4
"116",4072,237.915789473684,4185,95.3473684210526,283.957894736842,3511,-212.042105263158,3805,4311,-97.5789473684211,-102.705263157895,3958,3961,-299.631578947368,32,0,1559,1771,0,4,4,4,4,4,4,4,4,4,4,4,4,4,4,4,4
"117",4076,232.789473684211,4185,91.7578947368421,283.452631578947,3506,-213.073684210526,3797,4311,-99.1157894736842,-103.726315789474,3954,3960,-303.221052631579,33,0,1555,1775,0,4,4,4,4,4,4,4,4,4,4,4,4,4,4,4,4
"118",4075,232.273684210526,4184,91.7578947368421,279.863157894737,3502,-213.073684210526,3796,4311,-100.652631578947,-104.242105263158,3952,3956,-305.273684210526,34,0,1555,1771,0,4,4,4,4,4,4,4,4,4,4,4,4,4,4,4,4
"119",4074,231.252631578947,4185,91.2526315789474,276.778947368421,3501,-215.126315789474,3799,4310,-104.757894736842,-103.221052631579,3953,3957,-307.831578947368,35,0,1559,1771,0,4,4,4,4,4,4,4,4,4,4,4,4,4,4,4,4
"120",4076,230.736842105263,4182,90.2210526315789,274.221052631579,3504,-218.715789473684,3801,4306,-101.684210526316,-107.315789473684,3955,3957,-304.242105263158,36,0,1555,1771,0,4,4,4,4,4,4,4,4,4,4,4,4,4,4,4,4
"121",4074,232.273684210526,4182,89.7157894736842,274.221052631579,3506,-220.252631578947,3798,4305,-98.0947368421053,-112.452631578947,3955,3956,-305.273684210526,37,0,1551,1775,0,4,4,4,4,4,4,4,4,4,4,4,4,4,4,4,4
"122",4073,232.273684210526,4184,95.3473684210526,276.778947368421,3506,-215.631578947368,3797,4308,-101.168421052632,-107.831578947368,3955,3956,-308.863157894737,38,0,1559,1771,0,4,4,4,4,4,4,4,4,4,4,4,4,4,4,4,4
"123",4074,232.273684210526,4184,106.631578947368,280.884210526316,3506,-212.557894736842,3801,4309,-100.652631578947,-103.221052631579,3957,3958,-303.726315789474,39,0,1551,1775,0,4,4,4,4,4,4,4,4,4,4,4,4,4,4,4,4
"124",4073,231.252631578947,4183,109.715789473684,277.810526315789,3504,-216.147368421053,3799,4307,-97.5789473684211,-104.757894736842,3956,3958,-302.18947368421,40,0,1555,1775,0,4,4,4,4,4,4,4,4,4,4,4,4,4,4,4,4
"125",4075,234.326315789474,4187,108.684210526316,274.726315789474,3504,-214.094736842105,3802,4308,-92.4526315789474,-104.242105263158,3961,3959,-304.242105263158,41,0,1551,1771,0,4,4,4,4,4,4,4,4,4,4,4,4,4,4,4,4
"126",4077,244.073684210526,4188,117.4,278.315789473684,3514,-212.557894736842,3814,4312,-87.3157894736842,-101.684210526316,3970,3962,-294.505263157895,42,0,1555,1775,0,4,4,4,4,4,4,4,4,4,4,4,4,4,4,4,4
"127",4076,263.557894736842,4186,137.4,278.831578947368,3541,-217.684210526316,3832,4312,-68.8631578947368,-99.1157894736842,3991,3961,-271.936842105263,43,0,1555,1775,0,4,4,4,4,4,4,4,4,4,4,4,4,4,4,4,4
"128",4075,284.578947368421,4187,154.842105263158,274.221052631579,3573,-219.736842105263,3858,4310,-41.6842105263158,-96.0421052631579,4021,3960,-246.294736842105,44,0,1555,1775,0,4,4,4,4,4,4,4,4,4,4,4,4,4,4,4,4
"129",4076,297.4,4187,164.073684210526,264.473684210526,3591,-222.305263157895,3877,4310,-26.2947368421053,-97.0631578947368,4038,3961,-231.421052631579,45,0,1555,1771,0,4,4,4,4,4,4,4,4,4,4,4,4,4,4,4,4
"130",4073,300.484210526316,4184,167.663157894737,252.684210526316,3593,-230.505263157895,3879,4310,-25.2736842105263,-102.705263157895,4039,3957,-231.421052631579,46,0,1555,1779,0,4,4,4,4,4,4,4,4,4,4,4,4,4,4,4,4
"131",4071,308.684210526316,4183,177.915789473684,247.042105263158,3604,-233.073684210526,3886,4308,-17.0631578947368,-105.778947368421,4049,3955,-222.189473684211,47,0,1559,1771,0,4,4,4,4,4,4,4,4,4,4,4,4,4,4,4,4
"132",4076,318.431578947368,4185,188.684210526316,249.084210526316,3619,-227.947368421053,3903,4308,-2.70526315789474,-103.726315789474,4064,3956,-209.368421052632,48,0,1555,1775,0,4,4,4,4,4,4,4,4,4,4,4,4,4,4,4,4
"133",4075,319.452631578947,4185,194.842105263158,251.652631578947,3621,-227.947368421053,3906,4309,-1.68421052631579,-100.136842105263,4064,3957,-209.368421052632,49,0,1559,1775,0,4,4,4,4,4,4,4,4,4,4,4,4,4,4,4,4
"134",4074,332.789473684211,4185,217.4,236.273684210526,3631,-228.452631578947,3916,4310,13.7052631578947,-97.5789473684211,4078,3956,-186.294736842105,50,0,1555,1771,0,4,4,4,4,4,4,4,4,4,4,4,4,4,4,4,4
"135",4080,-330.4,4186,246.126315789474,208.578947368421,3659,-222.810526315789,3946,4312,43.4526315789474,-93.4736842105263,4113,3958,-149.884210526316,51,0,1559,1771,0,4,4,4,4,4,4,4,4,4,4,4,4,4,4,4,4
"136",4085,-318.094736842105,4189,258.936842105263,197.810526315789,3674,-215.126315789474,3962,4312,53.7052631578947,-89.3684210526316,4129,3961,-143.221052631579,52,0,1559,1771,0,4,4,4,4,4,4,4,4,4,4,4,4,4,4,4,4
"137",4083,-323.221052631579,4188,256.378947368421,203.957894736842,3670,-214.094736842105,3959,4310,47.0421052631579,-90.9157894736842,4123,3961,-144.757894736842,53,0,1559,1775,0,4,4,4,4,4,4,4,4,4,4,4,4,4,4,4,4
"138",4078,-323.726315789474,4184,256.378947368421,203.452631578947,3669,-218.715789473684,3962,4311,48.0631578947368,-95.0105263157895,4125,3957,-137.578947368421,54,0,1559,1771,0,4,4,4,4,4,4,4,4,4,4,4,4,4,4,4,4
"139",4075,-322.705263157895,4182,252.789473684211,199.863157894737,3670,-221.789473684211,3959,4309,49.6,-95.0105263157895,4125,3956,-145.778947368421,55,0,1559,1775,0,4,4,4,4,4,4,4,4,4,4,4,4,4,4,4,4
"140",4075,-326.294736842105,4183,243.557894736842,202.421052631579,3667,-223.326315789474,3951,4304,44.4736842105263,-96.5473684210526,4113,3956,-156.042105263158,56,0,1559,1771,0,4,4,4,4,4,4,4,4,4,4,4,4,4,4,4,4
"141",4075,-329.884210526316,4183,238.431578947368,199.863157894737,3662,-225.378947368421,3952,4301,46.0105263157895,-102.705263157895,4113,3948,-149.368421052632,57,0,1555,1771,0,4,4,4,4,4,4,4,4,4,4,4,4,4,4,4,4
"142",4075,-328.863157894737,4182,243.042105263158,198.315789473684,3662,-228.452631578947,3957,4299,48.5789473684211,-104.242105263158,4124,3941,-145.273684210526,58,0,1559,1771,0,4,4,4,4,4,4,4,4,4,4,4,4,4,4,4,4
"143",4074,-325.273684210526,4182,248.168421052632,204.473684210526,3664,-231.021052631579,3954,4297,44.9894736842105,-104.757894736842,4123,3946,-150.4,59,0,1559,1771,0,4,4,4,4,4,4,4,4,4,4,4,4,4,4,4,4
"144",4075,-327.315789473684,4182,242.536842105263,209.084210526316,3661,-227.431578947368,3948,4302,43.4526315789474,-104.757894736842,4115,3952,-149.368421052632,60,0,1559,1775,0,4,4,4,4,4,4,4,4,4,4,4,4,4,4,4,4
"145",4079,-332.452631578947,4183,236.894736842105,216.778947368421,3654,-222.810526315789,3946,4311,48.0631578947368,-100.136842105263,4114,3953,-148.347368421053,61,0,1555,1771,0,4,4,4,4,4,4,4,4,4,4,4,4,4,4,4,4
"146",4078,-343.221052631579,4178,226.126315789474,234.221052631579,3644,-225.378947368421,3937,4312,36.7789473684211,-98.6,4103,3957,-165.273684210526,62,0,1559,1775,0,4,4,4,4,4,4,4,4,4,4,4,4,4,4,4,4
"147",4079,334.326315789474,4171,213.305263157895,245.494736842105,3630,-227.431578947368,3922,4308,14.7263157894737,-103.726315789474,4083,3958,-189.368421052632,63,0,1555,1771,0,4,4,4,4,4,4,4,4,4,4,4,4,4,4,4,4
"148",4085,334.842105263158,4170,211.252631578947,243.957894736842,3631,-225.378947368421,3918,4309,14.7263157894737,-105.778947368421,4084,3956,-185.778947368421,64,0,1555,1771,389,4,4,4,4,4,4,4,4,4,4,4,4,4,4,4,4
"149",4089,-339.115789473684,4177,224.073684210526,245.494736842105,3647,-225.378947368421,3935,4310,33.7052631578947,-102.705263157895,4104,3958,-163.221052631579,65,0,1555,1775,481,4,4,4,4,4,4,4,4,4,4,4,4,4,4,4,4
"150",4089,-335.526315789474,4179,230.221052631579,248.063157894737,3646,-225.894736842105,3943,4310,40.3684210526316,-103.726315789474,4108,3960,-158.6,66,0,1555,1771,433,4,4,4,4,4,4,4,4,4,4,4,4,4,4,4,4
"151",4091,-342.705263157895,4178,228.168421052632,244.473684210526,3636,-224.863157894737,3931,4309,33.1894736842105,-109.884210526316,4098,3957,-167.315789473684,67,0,1551,1771,510,4,4,4,4,4,4,4,4,4,4,4,4,4,4,4,4
"152",4092,-341.684210526316,4183,229.715789473684,243.452631578947,3643,-225.378947368421,3926,4309,30.6315789473684,-111.936842105263,4095,3958,-168.863157894737,68,0,1559,1771,510,4,4,4,4,4,4,4,4,4,4,4,4,4,4,4,4
"153",4090,-339.631578947368,4186,230.221052631579,247.547368421053,3651,-225.378947368421,3930,4310,31.1368421052632,-109.884210526316,4097,3960,-166.294736842105,69,0,1551,1767,502,4,4,4,4,4,4,4,4,4,4,4,4,4,4,4,4
"154",4091,-340.652631578947,4184,230.221052631579,248.578947368421,3649,-225.378947368421,3933,4310,31.6526315789474,-109.884210526316,4099,3959,-165.778947368421,70,0,1555,1771,473,4,4,4,4,4,4,4,4,4,4,4,4,4,4,4,4
"155",4092,-338.6,4185,233.305263157895,248.578947368421,3650,-226.4,3940,4309,33.7052631578947,-110.915789473684,4105,3959,-163.221052631579,71,0,1555,1771,486,4,4,4,4,4,4,4,4,4,4,4,4,4,4,4,4
"156",4092,-336.547368421053,4185,235.347368421053,248.578947368421,3653,-227.431578947368,3943,4309,35.2421052631579,-110.4,4108,3959,-163.726315789474,72,0,1555,1771,523,4,4,4,4,4,4,4,4,4,4,4,4,4,4,4,4
"157",4091,-341.168421052632,4177,228.168421052632,244.473684210526,3644,-227.947368421053,3932,4309,33.7052631578947,-111.421052631579,4101,3958,-166.294736842105,73,0,1555,1771,488,4,4,4,4,4,4,4,4,4,4,4,4,4,4,4,4
"158",4088,343.557894736842,4174,221.505263157895,241.4,3636,-228.968421052632,3923,4305,28.0631578947368,-112.452631578947,4091,3956,-166.810526315789,74,0,1555,1775,543,4,4,4,4,4,4,4,4,4,4,4,4,4,4,4,4
"159",4089,336.894736842105,4178,217.4,242.421052631579,3634,-229.989473684211,3923,4306,16.2736842105263,-111.936842105263,4087,3956,-176.547368421053,75,0,1555,1767,459,4,4,4,4,4,4,4,4,4,4,4,4,4,4,4,4
"160",4091,339.452631578947,4180,219.968421052632,244.473684210526,3635,-228.452631578947,3925,4310,14.7263157894737,-111.936842105263,4090,3957,-179.631578947368,76,0,1555,1771,522,4,4,4,4,4,4,4,4,4,4,4,4,4,4,4,4
"161",4093,-341.168421052632,4180,228.168421052632,246.526315789474,3639,-225.894736842105,3931,4312,23.9578947368421,-109.884210526316,4097,3958,-171.936842105263,77,0,1559,1771,478,4,4,4,4,4,4,4,4,4,4,4,4,4,4,4,4
"162",4095,-343.726315789474,4179,224.578947368421,248.578947368421,3638,-226.4,3930,4311,22.9368421052632,-108.863157894737,4092,3959,-174.505263157895,78,0,1555,1771,543,4,4,4,4,4,4,4,4,4,4,4,4,4,4,4,4
"163",4101,-344.757894736842,4180,222.536842105263,246.010526315789,3636,-225.378947368421,3927,4312,22.4210526315789,-111.936842105263,4092,3958,-176.547368421053,79,0,1559,1775,459,4,4,4,4,4,4,4,4,4,4,4,4,4,4,4,4
"164",4105,-331.936842105263,4185,235.347368421053,251.136842105263,3646,-223.842105263158,3936,4312,37.8105263157895,-111.421052631579,4106,3957,-158.6,80,0,1559,1771,522,4,4,4,4,4,4,4,4,4,4,4,4,4,4,4,4
"165",4105,335.347368421053,4185,216.894736842105,251.136842105263,3636,-234.610526315789,3918,4313,19.8631578947368,-104.242105263158,4087,3960,-165.778947368421,81,0,1555,1775,478,4,4,4,4,4,4,4,4,4,4,4,4,4,4,4,4
"166",4106,268.168421052632,4174,150.221052631579,219.347368421053,3588,-247.431578947368,3856,4311,-47.3157894736842,-103.726315789474,4016,3960,-222.189473684211,82,0,1555,1775,543,4,4,4,4,4,4,4,4,4,4,4,4,4,4,4,4
"167",4104,233.305263157895,4170,113.305263157895,201.905263157895,3552,-247.431578947368,3815,4306,-89.3684210526316,-108.863157894737,3968,3956,-257.578947368421,83,0,1559,1771,459,4,4,4,4,4,4,4,4,4,4,4,4,4,4,4,4
"168",4099,238.431578947368,4172,122.021052631579,232.168421052632,3555,-248.968421052632,3816,4305,-82.1894736842105,-109.884210526316,3969,3955,-249.368421052632,84,0,1555,1771,522,4,4,4,4,4,4,4,4,4,4,4,4,4,4,4,4
"169",4101,237.915789473684,4169,124.073684210526,253.705263157895,3557,-257.684210526316,3818,4306,-78.6,-110.915789473684,3973,3956,-249.368421052632,85,0,1555,1775,478,4,4,4,4,4,4,4,4,4,4,4,4,4,4,4,4
"170",4104,231.252631578947,4166,113.810526315789,247.042105263158,3550,-259.221052631579,3811,4305,-90.9157894736842,-113.473684210526,3966,3955,-262.705263157895,86,0,1559,1771,543,4,4,4,4,4,4,4,4,4,4,4,4,4,4,4,4
"171",4103,234.842105263158,4168,115.863157894737,250.115789473684,3552,-255.631578947368,3814,4306,-90.4,-110.915789473684,3967,3956,-261.168421052632,87,0,1555,1775,459,4,4,4,4,4,4,4,4,4,4,4,4,4,4,4,4
"172",4102,235.347368421053,4170,116.378947368421,253.189473684211,3552,-257.168421052632,3815,4306,-85.7789473684211,-112.452631578947,3966,3956,-259.115789473684,88,0,1559,1775,522,4,4,4,4,4,4,4,4,4,4,4,4,4,4,4,4
"173",4104,229.2,4167,109.2,243.957894736842,3548,-258.715789473684,3812,4306,-88.8631578947368,-118.6,3963,3952,-262.705263157895,89,0,1555,1771,478,4,4,4,4,4,4,4,4,4,4,4,4,4,4,4,4
"174",4106,235.863157894737,4169,114.842105263158,250.115789473684,3554,-255.126315789474,3815,4308,-84.7578947368421,-115.526315789474,3970,3954,-251.936842105263,90,0,1555,1771,543,4,4,4,4,4,4,4,4,4,4,4,4,4,4,4,4
"175",4107,242.021052631579,4169,127.147368421053,259.347368421053,3558,-253.073684210526,3820,4309,-77.5789473684211,-111.936842105263,3976,3958,-246.294736842105,91,0,1555,1775,459,4,4,4,4,4,4,4,4,4,4,4,4,4,4,4,4
"176",4106,235.863157894737,4167,125.094736842105,251.652631578947,3554,-256.663157894737,3818,4308,-77.5789473684211,-117.063157894737,3973,3957,-257.578947368421,92,0,1559,1775,522,4,4,4,4,4,4,4,4,4,4,4,4,4,4,4,4
"177",4104,229.2,4167,111.252631578947,248.578947368421,3552,-261.789473684211,3813,4308,-84.2421052631579,-119.115789473684,3968,3953,-265.778947368421,93,0,1559,1767,478,4,4,4,4,4,4,4,4,4,4,4,4,4,4,4,4
"178",4106,238.431578947368,4170,113.305263157895,257.294736842105,3558,-257.168421052632,3821,4308,-80.6526315789474,-112.957894736842,3974,3955,-259.115789473684,94,0,1555,1779,543,4,4,4,4,4,4,4,4,4,4,4,4,4,4,4,4
"179",4109,244.578947368421,4169,123.557894736842,259.863157894737,3559,-247.431578947368,3828,4310,-70.4,-110.915789473684,3982,3957,-247.315789473684,95,0,1559,1775,459,4,4,4,4,4,4,4,4,4,4,4,4,4,4,4,4
"180",4108,246.126315789474,4168,126.631578947368,257.294736842105,3558,-247.431578947368,3829,4312,-65.7789473684211,-116.042105263158,3987,3956,-240.652631578947,96,0,1555,1771,522,4,4,4,4,4,4,4,4,4,4,4,4,4,4,4,4
"181",4107,248.684210526316,4166,122.021052631579,258.315789473684,3560,-257.168421052632,3827,4310,-67.3157894736842,-118.094736842105,3989,3955,-242.705263157895,97,0,1555,1775,478,4,4,4,4,4,4,4,4,4,4,4,4,4,4,4,4
"182",4105,244.578947368421,4161,116.378947368421,246.010526315789,3559,-257.684210526316,3824,4309,-71.4210526315789,-117.063157894737,3984,3956,-247.831578947368,98,0,1555,1775,543,4,4,4,4,4,4,4,4,4,4,4,4,4,4,4,4
"183",4105,233.305263157895,4163,106.631578947368,229.084210526316,3548,-247.431578947368,3812,4310,-82.1894736842105,-116.042105263158,3970,3956,-257.578947368421,99,0,1559,1771,459,4,4,4,4,4,4,4,4,4,4,4,4,4,4,4,4
"184",4107,218.936842105263,4169,90.2210526315789,238.315789473684,3534,-247.947368421053,3793,4310,-100.652631578947,-117.063157894737,3954,3957,-278.6,100,0,1555,1779,522,4,4,4,4,4,4,4,4,4,4,4,4,4,4,4,4
"185",4109,217.4,4167,86.1263157894737,255.242105263158,3533,-258.2,3790,4309,-101.168421052632,-117.578947368421,3951,3958,-282.18947368421,101,0,1559,1771,478,4,4,4,4,4,4,4,4,4,4,4,4,4,4,4,4
"186",4109,227.663157894737,4157,95.8631578947368,254.726315789474,3543,-258.715789473684,3800,4309,-85.2736842105263,-117.578947368421,3961,3957,-263.726315789474,102,0,1555,1775,543,4,4,4,4,4,4,4,4,4,4,4,4,4,4,4,4
"187",4108,234.842105263158,4155,102.021052631579,252.684210526316,3545,-255.631578947368,3805,4305,-77.0631578947368,-118.6,3969,3956,-256.547368421053,103,0,1555,1775,459,4,4,4,4,4,4,4,4,4,4,4,4,4,4,4,4
"188",4109,231.252631578947,4155,94.3263157894737,256.778947368421,3540,-258.715789473684,3804,4299,-83.7263157894737,-120.652631578947,3969,3955,-264.242105263158,104,0,1555,1775,522,4,4,4,4,4,4,4,4,4,4,4,4,4,4,4,4
"189",4118,233.810526315789,4155,97.4,256.273684210526,3547,-253.578947368421,3812,4304,-81.1684210526316,-120.652631578947,3973,3956,-263.221052631579,105,0,1559,1771,478,4,4,4,4,4,4,4,4,4,4,4,4,4,4,4,4
"190",4124,240.989473684211,4160,109.2,258.315789473684,3559,-243.842105263158,3820,4309,-66.8105263157895,-117.063157894737,3981,3957,-256.042105263158,106,0,1555,1775,543,4,4,4,4,4,4,4,4,4,4,4,4,4,4,4,4
"191",4119,242.021052631579,4160,109.2,261.905263157895,3558,-248.968421052632,3818,4306,-67.3157894736842,-117.578947368421,3980,3957,-255.010526315789,107,0,1559,1771,459,4,4,4,4,4,4,4,4,4,4,4,4,4,4,4,4
"192",4115,237.4,4155,103.042105263158,256.273684210526,3550,-257.684210526316,3814,4303,-73.9894736842105,-120.136842105263,3976,3956,-251.421052631579,108,0,1555,1771,522,4,4,4,4,4,4,4,4,4,4,4,4,4,4,4,4
"193",4118,240.484210526316,4153,104.073684210526,255.242105263158,3552,-255.126315789474,3818,4308,-69.3684210526316,-119.631578947368,3983,3957,-246.810526315789,109,0,1555,1775,478,4,4,4,4,4,4,4,4,4,4,4,4,4,4,4,4
"194",4124,251.757894736842,4157,114.842105263158,259.863157894737,3558,-253.073684210526,3827,4309,-56.5473684210526,-116.547368421053,3992,3958,-241.168421052632,110,0,1555,1775,543,4,4,4,4,4,4,4,4,4,4,4,4,4,4,4,4
"195",4121,254.842105263158,4155,122.021052631579,260.368421052632,3563,-256.663157894737,3831,4305,-50.4,-117.063157894737,3998,3956,-230.915789473684,111,0,1555,1771,459,4,4,4,4,4,4,4,4,4,4,4,4,4,4,4,4
"196",4116,255.863157894737,4153,124.578947368421,258.831578947368,3570,-257.168421052632,3837,4306,-48.8631578947368,-119.115789473684,4006,3957,-226.810526315789,112,0,1555,1771,522,4,4,4,4,4,4,4,4,4,4,4,4,4,4,4,4
"197",4118,260.484210526316,4153,125.094736842105,255.242105263158,3574,-258.2,3845,4307,-47.8315789473684,-119.631578947368,4008,3958,-232.452631578947,113,0,1555,1775,478,4,4,4,4,4,4,4,4,4,4,4,4,4,4,4,4
"198",4122,262.536842105263,4153,125.610526315789,256.273684210526,3571,-259.221052631579,3846,4307,-47.8315789473684,-119.115789473684,4008,3957,-237.063157894737,114,0,1559,1771,543,4,4,4,4,4,4,4,4,4,4,4,4,4,4,4,4
"199",4121,257.4,4153,122.021052631579,261.4,3566,-257.684210526316,3842,4308,-50.4,-119.115789473684,4008,3956,-231.936842105263,115,0,1555,1771,459,4,4,4,4,4,4,4,4,4,4,4,4,4,4,4,4
"200",4118,260.989473684211,4152,125.094736842105,246.526315789474,3568,-257.684210526316,3845,4307,-48.8631578947368,-120.136842105263,4014,3957,-221.684210526316,116,0,1559,1771,522,4,4,4,4,4,4,4,4,4,4,4,4,4,4,4,4
"201",4120,273.810526315789,4153,138.431578947368,219.863157894737,3580,-255.631578947368,3856,4303,-36.0421052631579,-120.136842105263,4026,3956,-210.4,117,0,1555,1771,478,4,4,4,4,4,4,4,4,4,4,4,4,4,4,4,4
"202",4124,285.094736842105,4154,143.042105263158,211.136842105263,3591,-247.947368421053,3867,4303,-25.2736842105263,-117.578947368421,4039,3956,-202.705263157895,118,0,1555,1771,543,4,4,4,4,4,4,4,4,4,4,4,4,4,4,4,4
"203",4126,286.631578947368,4154,139.968421052632,215.242105263158,3593,-244.863157894737,3867,4309,-26.8105263157895,-115.010526315789,4040,3958,-204.242105263158,119,0,1555,1771,459,4,4,4,4,4,4,4,4,4,4,4,4,4,4,4,4
"204",4124,279.452631578947,4152,139.968421052632,230.631578947368,3590,-247.431578947368,3863,4311,-32.4526315789474,-115.010526315789,4031,3957,-211.421052631579,120,0,1559,1771,522,4,4,4,4,4,4,4,4,4,4,4,4,4,4,4,4
"205",4123,275.347368421053,4154,138.936842105263,254.726315789474,3579,-246.915789473684,3859,4310,-33.9894736842105,-117.063157894737,4028,3957,-212.957894736842,121,0,1555,1771,478,4,4,4,4,4,4,4,4,4,4,4,4,4,4,4,4
"206",4127,272.273684210526,4155,130.221052631579,267.547368421053,3572,-244.357894736842,3851,4310,-38.6,-119.115789473684,4025,3958,-216.547368421053,122,0,1555,1775,543,4,4,4,4,4,4,4,4,4,4,4,4,4,4,4,4
"207",4128,277.4,4153,132.789473684211,264.473684210526,3583,-246.4,3853,4309,-38.0947368421053,-119.115789473684,4026,3956,-220.652631578947,123,0,1559,1767,459,4,4,4,4,4,4,4,4,4,4,4,4,4,4,4,4
"208",4124,285.094736842105,4151,143.557894736842,262.936842105263,3593,-250.505263157895,3865,4309,-28.8631578947368,-119.631578947368,4037,3956,-211.421052631579,124,0,1551,1775,522,4,4,4,4,4,4,4,4,4,4,4,4,4,4,4,4
"209",4126,286.126315789474,4152,143.042105263158,261.4,3588,-247.947368421053,3867,4310,-28.3473684210526,-121.684210526316,4040,3957,-207.315789473684,125,0,1555,1771,478,4,4,4,4,4,4,4,4,4,4,4,4,4,4,4,4
"210",4131,282.536842105263,4153,139.452631578947,258.831578947368,3586,-245.894736842105,3859,4312,-32.9578947368421,-120.652631578947,4030,3956,-219.631578947368,126,0,1555,1775,543,4,4,4,4,4,4,4,4,4,4,4,4,4,4,4,4
"211",4131,292.273684210526,4153,152.273684210526,262.936842105263,3599,-251.536842105263,3869,4312,-21.6842105263158,-117.578947368421,4039,3957,-211.936842105263,127,0,1559,1771,459,4,4,4,4,4,4,4,4,4,4,4,4,4,4,4,4
"212",4132,304.073684210526,4153,163.557894736842,262.936842105263,3612,-257.168421052632,3883,4311,-8.86315789473684,-118.094736842105,4057,3957,-193.989473684211,128,0,1555,1771,522,4,4,4,4,4,4,4,4,4,4,4,4,4,4,4,4
"213",4129,295.347368421053,4149,157.4,255.242105263158,3604,-258.2,3875,4310,-19.1157894736842,-120.652631578947,4047,3951,-205.778947368421,0,0,1559,1775,389,4,4,4,4,4,4,4,4,4,4,4,4,4,4,4,4
"214",4122,284.578947368421,4146,149.715789473684,246.010526315789,3587,-258.715789473684,3861,4309,-28.8631578947368,-121.168421052632,4034,3943,-222.189473684211,1,0,1555,1771,481,4,4,4,4,4,4,4,4,4,4,4,4,4,4,4,4
"215",4122,287.663157894737,4145,151.757894736842,246.010526315789,3592,-258.715789473684,3864,4306,-19.6315789473684,-121.684210526316,4043,3943,-211.421052631579,2,0,1555,1775,433,4,4,4,4,4,4,4,4,4,4,4,4,4,4,4,4
"216",4125,293.305263157895,4145,152.789473684211,251.136842105263,3604,-258.2,3869,4305,-16.5473684210526,-123.726315789474,4047,3945,-212.957894736842,3,0,1555,1771,510,4,4,4,4,4,4,4,4,4,4,4,4,4,4,4,4
"217",4122,285.610526315789,4144,140.989473684211,249.6,3595,-258.715789473684,3861,4303,-28.8631578947368,-123.221052631579,4033,3944,-232.957894736842,4,0,1555,1775,510,4,4,4,4,4,4,4,4,4,4,4,4,4,4,4,4
"218",4122,285.094736842105,4142,139.452631578947,247.042105263158,3593,-259.736842105263,3864,4299,-26.8105263157895,-121.684210526316,4034,3944,-227.831578947368,5,0,1559,1771,502,4,4,4,4,4,4,4,4,4,4,4,4,4,4,4,4
"219",4126,300.989473684211,4137,156.894736842105,250.115789473684,3614,-257.168421052632,3884,4299,-6.81052631578947,-122.189473684211,4056,3947,-200.652631578947,6,0,1555,1771,473,4,4,4,4,4,4,4,4,4,4,4,4,4,4,4,4
"220",4128,321.505263157895,4141,176.378947368421,254.221052631579,3634,-248.968421052632,3903,4307,7.54736842105263,-121.168421052632,4077,3951,-182.705263157895,7,0,1559,1771,486,4,4,4,4,4,4,4,4,4,4,4,4,4,4,4,4
"221",4132,331.757894736842,4148,183.042105263158,259.347368421053,3641,-243.842105263158,3912,4309,17.8105263157895,-118.094736842105,4088,3957,-177.578947368421,8,0,1555,1771,523,4,4,4,4,4,4,4,4,4,4,4,4,4,4,4,4
"222",4137,335.863157894737,4147,188.168421052632,254.221052631579,3648,-244.863157894737,3918,4304,29.6,-118.094736842105,4094,3958,-170.915789473684,9,0,1555,1767,487,4,4,4,4,4,4,4,4,4,4,4,4,4,4,4,4
"223",4138,-343.221052631579,4144,195.863157894737,233.189473684211,3660,-245.894736842105,3929,4299,34.2210526315789,-119.631578947368,4106,3950,-162.705263157895,10,0,1555,1771,542,4,4,4,4,4,4,4,4,4,4,4,4,4,4,4,4
"224",4135,-338.094736842105,4139,196.378947368421,227.547368421053,3666,-245.378947368421,3931,4297,33.7052631578947,-119.631578947368,4111,3942,-161.684210526316,11,0,1555,1771,458,4,4,4,4,4,4,4,4,4,4,4,4,4,4,4,4
"225",4136,340.989473684211,4143,189.715789473684,246.010526315789,3654,-246.4,3919,4296,31.1368421052632,-120.136842105263,4102,3944,-169.368421052632,12,0,1555,1771,522,4,4,4,4,4,4,4,4,4,4,4,4,4,4,4,4
"226",4134,325.094736842105,4151,177.915789473684,256.273684210526,3634,-245.894736842105,3906,4299,15.7578947368421,-119.631578947368,4086,3949,-183.221052631579,13,0,1555,1771,478,4,4,4,4,4,4,4,4,4,4,4,4,4,4,4,4
"227",4131,330.221052631579,4148,179.452631578947,252.168421052632,3635,-247.431578947368,3906,4304,11.1368421052632,-118.094736842105,4086,3948,-185.778947368421,14,0,1555,1775,542,4,4,4,4,4,4,4,4,4,4,4,4,4,4,4,4
"228",4126,-343.221052631579,4138,193.305263157895,249.084210526316,3653,-253.073684210526,3921,4303,27.0421052631579,-118.6,4101,3945,-171.936842105263,15,0,1559,1767,458,4,4,4,4,4,4,4,4,4,4,4,4,4,4,4,4
"229",4127,-336.042105263158,4138,204.578947368421,241.905263157895,3665,-248.968421052632,3932,4298,37.8105263157895,-118.094736842105,4113,3945,-159.631578947368,16,0,1551,1775,0,4,4,4,4,4,4,4,4,4,4,4,4,4,4,4,4
"230",4131,-338.6,4144,200.484210526316,249.6,3658,-243.842105263158,3927,4301,33.7052631578947,-117.063157894737,4112,3946,-163.221052631579,17,0,1559,1771,0,4,4,4,4,4,4,4,4,4,4,4,4,4,4,4,4
"231",4129,343.042105263158,4143,188.684210526316,286.010526315789,3643,-251.536842105263,3913,4303,24.9894736842105,-118.6,4101,3944,-175.010526315789,18,0,1555,1767,0,4,4,4,4,4,4,4,4,4,4,4,4,4,4,4,4
"232",4123,334.326315789474,4143,183.042105263158,310.115789473684,3635,-259.736842105263,3906,4301,16.7789473684211,-120.652631578947,4093,3943,-182.705263157895,19,0,1555,1775,0,4,4,4,4,4,4,4,4,4,4,4,4,4,4,4,4
"233",4120,334.326315789474,4141,186.126315789474,306.010526315789,3638,-260.768421052632,3911,4298,16.2736842105263,-120.136842105263,4092,3943,-182.705263157895,20,0,1555,1771,0,4,4,4,4,4,4,4,4,4,4,4,4,4,4,4,4
"234",4121,337.4,4139,188.168421052632,301.905263157895,3639,-259.736842105263,3908,4298,18.8315789473684,-120.652631578947,4093,3943,-180.136842105263,21,0,1559,1771,0,4,4,4,4,4,4,4,4,4,4,4,4,4,4,4,4
"235",4119,327.663157894737,4139,180.989473684211,307.547368421053,3627,-259.221052631579,3894,4297,10.1157894736842,-124.757894736842,4085,3941,-186.810526315789,22,0,1555,1767,0,4,4,4,4,4,4,4,4,4,4,4,4,4,4,4,4
"236",4122,331.252631578947,4138,183.042105263158,308.063157894737,3631,-257.684210526316,3896,4296,13.1894736842105,-125.273684210526,4088,3941,-187.831578947368,23,0,1555,1775,0,4,4,4,4,4,4,4,4,4,4,4,4,4,4,4,4
"237",4125,-338.094736842105,4141,202.021052631579,296.778947368421,3655,-258.2,3921,4298,31.6526315789474,-120.652631578947,4106,3943,-169.884210526316,24,0,1559,1771,0,4,4,4,4,4,4,4,4,4,4,4,4,4,4,4,4
"238",4123,-332.957894736842,4142,209.2,290.631578947368,3661,-258.715789473684,3932,4301,38.3157894736842,-118.6,4113,3942,-159.631578947368,25,0,1551,1771,0,4,4,4,4,4,4,4,4,4,4,4,4,4,4,4,4
"239",4120,344.578947368421,4138,191.252631578947,286.526315789474,3646,-260.768421052632,3914,4301,27.0421052631579,-120.652631578947,4103,3941,-169.884210526316,26,0,1555,1775,0,4,4,4,4,4,4,4,4,4,4,4,4,4,4,4,4
"240",4120,-341.684210526316,4138,189.715789473684,258.315789473684,3648,-259.221052631579,3910,4296,27.0421052631579,-121.684210526316,4105,3938,-168.863157894737,27,0,1555,1771,0,4,4,4,4,4,4,4,4,4,4,4,4,4,4,4,4
"241",4123,-317.578947368421,4141,216.894736842105,217.294736842105,3674,-251.021052631579,3939,4293,50.1157894736842,-120.652631578947,4132,3934,-140.652631578947,28,0,1559,1775,0,4,4,4,4,4,4,4,4,4,4,4,4,4,4,4,4
"242",4125,-301.168421052632,4138,237.4,204.989473684211,3698,-251.021052631579,3965,4294,73.1894736842105,-119.631578947368,4158,3929,-116.042105263158,29,0,1551,1779,0,4,4,4,4,4,4,4,4,4,4,4,4,4,4,4,4
"243",4123,-302.705263157895,4138,235.863157894737,210.115789473684,3698,-257.168421052632,3965,4294,73.7052631578947,-122.189473684211,4157,3928,-119.631578947368,30,0,1559,1775,0,4,4,4,4,4,4,4,4,4,4,4,4,4,4,4,4
"244",4121,-309.368421052632,4138,225.610526315789,207.042105263158,3685,-252.042105263158,3955,4294,61.9052631578947,-123.221052631579,4145,3932,-135.010526315789,31,0,1555,1771,0,4,4,4,4,4,4,4,4,4,4,4,4,4,4,4,4
"245",4123,-305.778947368421,4141,226.631578947368,214.221052631579,3685,-241.789473684211,3957,4294,63.9578947368421,-120.136842105263,4146,3938,-132.452631578947,32,0,1555,1779,0,4,4,4,4,4,4,4,4,4,4,4,4,4,4,4,4
"246",4127,-296.042105263158,4142,238.936842105263,221.905263157895,3703,-242.810526315789,3969,4294,75.7578947368421,-118.094736842105,4159,3938,-113.989473684211,33,0,1559,1771,0,4,4,4,4,4,4,4,4,4,4,4,4,4,4,4,4
"247",4126,-284.757894736842,4140,252.789473684211,206.526315789474,3714,-247.431578947368,3982,4294,84.9894736842105,-119.631578947368,4173,3932,-101.684210526316,34,0,1555,1775,0,4,4,4,4,4,4,4,4,4,4,4,4,4,4,4,4
"248",4119,-295.010526315789,4138,240.989473684211,197.294736842105,3695,-248.452631578947,3966,4293,72.6842105263158,-121.168421052632,4162,3927,-115.526315789474,35,0,1559,1771,0,4,4,4,4,4,4,4,4,4,4,4,4,4,4,4,4
"249",4118,-318.6,4140,217.915789473684,215.242105263158,3667,-246.4,3937,4293,46.5263157894737,-121.168421052632,4133,3929,-145.778947368421,36,0,1555,1775,0,4,4,4,4,4,4,4,4,4,4,4,4,4,4,4,4
"250",4119,-322.705263157895,4141,207.147368421053,231.136842105263,3663,-244.863157894737,3930,4293,38.8315789473684,-121.168421052632,4124,3931,-157.578947368421,37,0,1559,1771,0,4,4,4,4,4,4,4,4,4,4,4,4,4,4,4,4
"251",4121,-310.915789473684,4138,216.378947368421,229.084210526316,3680,-244.863157894737,3944,4291,53.7052631578947,-123.726315789474,4138,3924,-144.242105263158,38,0,1555,1775,0,4,4,4,4,4,4,4,4,4,4,4,4,4,4,4,4
"252",4133,-281.684210526316,4149,255.347368421053,244.473684210526,3718,-229.989473684211,3980,4294,89.6,-118.6,4176,3929,-102.189473684211,39,0,1559,1775,0,4,4,4,4,4,4,4,4,4,4,4,4,4,4,4,4
"253",4163,-223.221052631579,4168,320.989473684211,284.989473684211,3783,-194.094736842105,4048,4312,151.652631578947,-93.4736842105263,4247,3953,-35.0105263157895,40,0,1559,1771,0,4,4,4,4,4,4,4,4,4,4,4,4,4,4,4,4
"254",4185,-179.115789473684,4182,-322.705263157895,309.084210526316,3827,-167.431578947368,4098,4324,200.884210526316,-73.9894736842105,4301,3966,11.6526315789474,41,0,1555,1775,0,4,4,4,4,4,4,4,4,4,4,4,4,4,4,4,4
"255",4187,-186.810526315789,4184,-329.368421052632,313.18947368421,3823,-164.863157894737,4093,4319,197.810526315789,-77.0631578947368,4292,3962,5.49473684210526,42,0,1559,1771,0,4,4,4,4,4,4,4,4,4,4,4,4,4,4,4,4
"256",4186,-193.473684210526,4185,-337.578947368421,318.831578947368,3815,-165.894736842105,4084,4320,190.115789473684,-80.1368421052632,4281,3966,-5.27368421052632,43,0,1555,1775,0,4,4,4,4,4,4,4,4,4,4,4,4,4,4,4,4
"257",4187,-168.347368421053,4186,-310.915789473684,323.452631578947,3840,-160.252631578947,4110,4328,214.221052631579,-74.5052631578947,4310,3975,21.9052631578947,44,0,1559,1771,0,4,4,4,4,4,4,4,4,4,4,4,4,4,4,4,4
"258",4188,-143.221052631579,4188,-283.221052631579,320.368421052632,3867,-159.221052631579,4139,4328,238.315789473684,-73.9894736842105,4343,3972,54.2210526315789,45,0,1559,1771,0,4,4,4,4,4,4,4,4,4,4,4,4,4,4,4,4
"259",4187,-146.810526315789,4187,-288.863157894737,318.315789473684,3864,-162.810526315789,4138,4325,237.810526315789,-76.5473684210526,4341,3970,51.6526315789474,46,0,1559,1771,0,4,4,4,4,4,4,4,4,4,4,4,4,4,4,4,4
"260",4188,-164.242105263158,4185,-305.778947368421,320.368421052632,3847,-160.768421052632,4119,4328,219.347368421053,-78.6,4318,3971,29.0842105263158,47,0,1559,1771,0,4,4,4,4,4,4,4,4,4,4,4,4,4,4,4,4
"261",4188,-170.915789473684,4187,-312.957894736842,320.368421052632,3843,-156.147368421053,4111,4328,208.578947368421,-79.6315789473684,4307,3970,19.3473684210526,48,0,1559,1771,0,4,4,4,4,4,4,4,4,4,4,4,4,4,4,4,4
"262",4188,-167.315789473684,4187,-315.526315789474,320.368421052632,3847,-158.2,4118,4325,213.189473684211,-80.1368421052632,4311,3967,22.4210526315789,49,0,1559,1775,0,4,4,4,4,4,4,4,4,4,4,4,4,4,4,4,4
"263",4186,-160.136842105263,4186,-313.473684210526,316.778947368421,3849,-164.863157894737,4124,4326,223.452631578947,-79.6315789473684,4321,3964,32.1684210526316,50,0,1555,1771,0,4,4,4,4,4,4,4,4,4,4,4,4,4,4,4,4
"264",4185,-147.831578947368,4188,-299.631578947368,317.810526315789,3861,-165.894736842105,4136,4327,236.778947368421,-78.6,4335,3964,52.1684210526316,51,0,1555,1775,0,4,4,4,4,4,4,4,4,4,4,4,4,4,4,4,4
"265",4192,-139.115789473684,4188,-289.368421052632,320.368421052632,3870,-160.252631578947,4147,4326,244.473684210526,-82.1894736842105,4342,3963,56.7789473684211,52,0,1559,1771,0,4,4,4,4,4,4,4,4,4,4,4,4,4,4,4,4
"266",4194,-148.863157894737,4186,-303.726315789474,314.726315789474,3862,-158.715789473684,4138,4325,231.652631578947,-88.3473684210526,4328,3959,40.3684210526316,53,0,1555,1775,0,4,4,4,4,4,4,4,4,4,4,4,4,4,4,4,4
"267",4189,-153.473684210526,4185,-308.863157894737,307.042105263158,3858,-165.894736842105,4134,4323,225.494736842105,-89.3684210526316,4323,3957,36.2736842105263,54,0,1559,1767,0,4,4,4,4,4,4,4,4,4,4,4,4,4,4,4,4
"268",4188,-143.221052631579,4185,-291.421052631579,302.421052631579,3867,-167.947368421053,4150,4322,241.4,-88.3473684210526,4339,3958,52.1684210526316,55,0,1555,1771,0,4,4,4,4,4,4,4,4,4,4,4,4,4,4,4,4
"269",4191,-139.115789473684,4186,-288.347368421053,302.936842105263,3872,-163.326315789474,4155,4323,243.957894736842,-89.8842105263158,4344,3960,51.6526315789474,56,0,1559,1775,0,4,4,4,4,4,4,4,4,4,4,4,4,4,4,4,4
"270",4186,-155.526315789474,4186,-313.989473684211,328.063157894737,3854,-163.326315789474,4134,4326,221.905263157895,-90.4,4321,3961,28.0631578947368,57,0,1555,1771,0,4,4,4,4,4,4,4,4,4,4,4,4,4,4,4,4
"271",4182,-167.315789473684,4186,-327.315789473684,-325.378947368421,3836,-161.789473684211,4118,4328,209.6,-89.3684210526316,4304,3961,17.2947368421053,58,0,1559,1771,0,4,4,4,4,4,4,4,4,4,4,4,4,4,4,4,4
"272",4185,-159.115789473684,4186,-314.505263157895,-313.578947368421,3839,-156.147368421053,4127,4328,217.294736842105,-95.0105263157895,4313,3958,28.5789473684211,59,0,1555,1771,0,4,4,4,4,4,4,4,4,4,4,4,4,4,4,4,4
"273",4185,-150.4,4186,-305.273684210526,-320.252631578947,3850,-158.2,4141,4326,227.547368421053,-100.136842105263,4327,3957,41.9052631578947,60,0,1555,1775,0,4,4,4,4,4,4,4,4,4,4,4,4,4,4,4,4
"274",4184,-141.684210526316,4191,-297.063157894737,-330.505263157895,3860,-160.768421052632,4150,4326,238.315789473684,-99.1157894736842,4336,3959,47.0421052631579,61,0,1555,1767,0,4,4,4,4,4,4,4,4,4,4,4,4,4,4,4,4
"275",4190,-130.915789473684,4193,-285.273684210526,342.421052631579,3870,-152.557894736842,4158,4328,244.473684210526,-99.1157894736842,4346,3961,51.6526315789474,62,0,1555,1775,0,4,4,4,4,4,4,4,4,4,4,4,4,4,4,4,4
"276",4196,-133.989473684211,4189,-283.221052631579,333.18947368421,3867,-147.431578947368,4154,4327,239.347368421053,-103.221052631579,4341,3960,48.5789473684211,63,0,1559,1767,0,4,4,4,4,4,4,4,4,4,4,4,4,4,4,4,4
"277",4191,-152.957894736842,4187,-301.684210526316,-343.842105263158,3849,-152.557894736842,4138,4325,225.494736842105,-104.757894736842,4319,3958,31.1368421052632,64,0,1551,1771,388,4,4,4,4,4,4,4,4,4,4,4,4,4,4,4,4
"278",4187,-153.473684210526,4187,-311.936842105263,-328.452631578947,3845,-156.663157894737,4135,4325,224.989473684211,-105.778947368421,4317,3957,31.6526315789474,65,0,1555,1775,481,4,4,4,4,4,4,4,4,4,4,4,4,4,4,4,4
"279",4187,-141.684210526316,4185,-305.778947368421,-321.789473684211,3856,-157.684210526316,4145,4324,236.273684210526,-108.347368421053,4332,3958,43.9578947368421,66,0,1555,1771,433,4,4,4,4,4,4,4,4,4,4,4,4,4,4,4,4
"280",4184,-147.831578947368,4185,-307.831578947368,-316.147368421053,3851,-158.2,4140,4321,229.6,-108.347368421053,4326,3961,34.7263157894737,67,0,1559,1775,510,4,4,4,4,4,4,4,4,4,4,4,4,4,4,4,4
"281",4181,-156.547368421053,4187,-312.957894736842,-333.578947368421,3840,-158.715789473684,4131,4313,214.221052631579,-112.957894736842,4311,3958,20.3684210526316,68,0,1551,1775,510,4,4,4,4,4,4,4,4,4,4,4,4,4,4,4,4
"282",4185,-148.347368421053,4186,-306.294736842105,315.242105263158,3846,-157.684210526316,4136,4308,218.315789473684,-120.136842105263,4317,3950,29.6,69,0,1555,1775,502,4,4,4,4,4,4,4,4,4,4,4,4,4,4,4,4
"283",4189,-141.684210526316,4187,-308.863157894737,289.6,3851,-154.094736842105,4139,4308,228.063157894737,-121.168421052632,4325,3944,35.2421052631579,70,0,1555,1767,473,4,4,4,4,4,4,4,4,4,4,4,4,4,4,4,4
"284",4182,-146.294736842105,4185,-319.631578947368,291.136842105263,3851,-153.073684210526,4137,4309,224.989473684211,-118.6,4321,3946,32.1684210526316,71,0,1551,1775,486,4,4,4,4,4,4,4,4,4,4,4,4,4,4,4,4
"285",4177,-138.094736842105,4184,-308.863157894737,289.084210526316,3861,-155.631578947368,4148,4308,231.136842105263,-121.168421052632,4329,3948,43.4526315789474,72,0,1559,1771,522,4,4,4,4,4,4,4,4,4,4,4,4,4,4,4,4
"286",4183,-126.294736842105,4184,-299.115789473684,282.936842105263,3868,-155.631578947368,4158,4309,242.421052631579,-128.863157894737,4342,3943,51.1368421052632,73,0,1555,1771,483,4,4,4,4,4,4,4,4,4,4,4,4,4,4,4,4
"287",4188,-128.863157894737,4184,-298.6,291.136842105263,3865,-149.484210526316,4155,4309,242.421052631579,-135.526315789474,4342,3946,47.5473684210526,74,0,1555,1771,537,4,4,4,4,4,4,4,4,4,4,4,4,4,4,4,4
"288",4188,-133.473684210526,4185,-298.094736842105,302.421052631579,3867,-141.789473684211,4154,4309,240.368421052632,-137.578947368421,4338,3955,48.0631578947368,75,0,1551,1771,452,4,4,4,4,4,4,4,4,4,4,4,4,4,4,4,4
"289",4189,-132.957894736842,4187,-302.18947368421,306.010526315789,3870,-141.273684210526,4154,4308,236.778947368421,-139.115789473684,4332,3951,47.0421052631579,76,0,1559,1771,521,4,4,4,4,4,4,4,4,4,4,4,4,4,4,4,4
"290",4187,-137.063157894737,4187,-306.294736842105,300.884210526316,3864,-146.915789473684,4150,4308,231.652631578947,-142.189473684211,4326,3945,42.4210526315789,77,0,1555,1771,475,4,4,4,4,4,4,4,4,4,4,4,4,4,4,4,4
"291",4184,-132.957894736842,4184,-290.4,291.652631578947,3865,-152.042105263158,4154,4305,236.778947368421,-143.221052631579,4337,3946,53.1894736842105,78,0,1555,1775,537,4,4,4,4,4,4,4,4,4,4,4,4,4,4,4,4
"292",4180,-120.136842105263,4183,-273.989473684211,286.526315789474,3876,-155.126315789474,4166,4303,246.526315789474,-143.726315789474,4350,3946,66.0105263157895,79,0,1555,1771,452,4,4,4,4,4,4,4,4,4,4,4,4,4,4,4,4
"293",4172,-114.505263157895,4183,-271.421052631579,284.473684210526,3883,-156.147368421053,4174,4306,252.168421052632,-140.136842105263,4353,3944,68.0631578947368,80,0,1555,1775,521,4,4,4,4,4,4,4,4,4,4,4,4,4,4,4,4
"294",4170,-117.063157894737,4185,-273.989473684211,286.010526315789,3879,-158.2,4169,4305,252.684210526316,-135.526315789474,4351,3946,68.5789473684211,81,0,1559,1771,475,4,4,4,4,4,4,4,4,4,4,4,4,4,4,4,4
"295",4172,-136.042105263158,4183,-290.915789473684,285.494736842105,3863,-158.2,4148,4298,234.221052631579,-139.631578947368,4333,3942,57.8105263157895,82,0,1555,1775,537,4,4,4,4,4,4,4,4,4,4,4,4,4,4,4,4
"296",4173,-156.042105263158,4183,-306.810526315789,281.905263157895,3846,-155.126315789474,4127,4302,213.189473684211,-141.168421052632,4310,3942,40.8842105263158,83,0,1559,1775,452,4,4,4,4,4,4,4,4,4,4,4,4,4,4,4,4
"297",4171,-169.368421052632,4186,-323.221052631579,297.294736842105,3830,-152.042105263158,4111,4310,199.863157894737,-133.989473684211,4293,3953,27.0421052631579,84,0,1555,1775,521,4,4,4,4,4,4,4,4,4,4,4,4,4,4,4,4
"298",4170,-184.242105263158,4187,-340.136842105263,329.084210526316,3814,-155.126315789474,4096,4310,180.368421052632,-133.989473684211,4273,3954,0.884210526315789,85,0,1555,1771,475,4,4,4,4,4,4,4,4,4,4,4,4,4,4,4,4
"299",4168,-208.863157894737,4186,334.326315789474,-341.273684210526,3795,-159.221052631579,4072,4308,155.757894736842,-143.221052631579,4248,3945,-27.8315789473684,86,0,1555,1775,537,4,4,4,4,4,4,4,4,4,4,4,4,4,4,4,4
"300",4168,-261.168421052632,4184,283.042105263158,-342.305263157895,3752,-157.684210526316,4013,4305,106.010526315789,-147.831578947368,4194,3943,-55.0105263157895,87,0,1555,1775,452,4,4,4,4,4,4,4,4,4,4,4,4,4,4,4,4
"301",4170,-333.989473684211,4184,207.663157894737,341.4,3690,-157.684210526316,3938,4301,30.1157894736842,-149.884210526316,4111,3946,-102.189473684211,88,0,1559,1771,521,4,4,4,4,4,4,4,4,4,4,4,4,4,4,4,4
"302",4170,314.326315789474,4185,169.715789473684,337.810526315789,3658,-160.768421052632,3898,4299,-14.5052631578947,-154.505263157895,4061,3944,-144.757894736842,89,0,1555,1771,475,4,4,4,4,4,4,4,4,4,4,4,4,4,4,4,4
"303",4169,308.168421052632,4185,155.347368421053,335.242105263158,3649,-164.863157894737,3886,4297,-21.6842105263158,-156.547368421053,4051,3940,-165.273684210526,90,0,1559,1779,537,4,4,4,4,4,4,4,4,4,4,4,4,4,4,4,4
"304",4166,300.484210526316,4179,132.273684210526,331.136842105263,3635,-167.431578947368,3873,4293,-36.5473684210526,-156.547368421053,4037,3938,-181.168421052632,91,0,1563,1771,452,4,4,4,4,4,4,4,4,4,4,4,4,4,4,4,4
"305",4166,304.578947368421,4178,143.042105263158,325.494736842105,3642,-167.431578947368,3882,4294,-31.9368421052632,-157.578947368421,4042,3939,-173.473684210526,92,0,1555,1775,521,4,4,4,4,4,4,4,4,4,4,4,4,4,4,4,4
"306",4168,322.021052631579,4184,171.757894736842,326.010526315789,3663,-166.915789473684,3904,4296,-5.77894736842105,-155.526315789474,4068,3942,-148.347368421053,93,0,1559,1775,475,4,4,4,4,4,4,4,4,4,4,4,4,4,4,4,4
"307",4168,327.147368421053,4186,176.378947368421,324.473684210526,3659,-166.915789473684,3907,4295,-2.18947368421053,-151.936842105263,4071,3942,-149.368421052632,94,0,1555,1771,537,4,4,4,4,4,4,4,4,4,4,4,4,4,4,4,4
"308",4168,329.715789473684,4183,177.915789473684,310.115789473684,3658,-165.378947368421,3909,4295,-7.31578947368421,-150.915789473684,4068,3942,-154.505263157895,95,0,1559,1775,452,4,4,4,4,4,4,4,4,4,4,4,4,4,4,4,4
"309",4170,342.021052631579,4184,192.789473684211,296.778947368421,3675,-163.842105263158,3921,4295,3.45263157894737,-149.884210526316,4082,3941,-140.652631578947,96,0,1555,1775,521,4,4,4,4,4,4,4,4,4,4,4,4,4,4,4,4
"310",4169,-339.631578947368,4182,201.505263157895,292.168421052632,3682,-165.894736842105,3927,4295,12.6842105263158,-147.831578947368,4094,3941,-130.4,97,0,1559,1775,475,4,4,4,4,4,4,4,4,4,4,4,4,4,4,4,4
"311",4169,-332.452631578947,4178,205.094736842105,275.242105263158,3688,-165.894736842105,3935,4296,20.8842105263158,-148.347368421053,4104,3943,-118.6,98,0,1555,1775,537,4,4,4,4,4,4,4,4,4,4,4,4,4,4,4,4
"312",4165,-324.757894736842,4179,204.578947368421,241.4,3698,-164.357894736842,3944,4293,30.6315789473684,-148.863157894737,4110,3941,-109.884210526316,99,0,1559,1775,452,4,4,4,4,4,4,4,4,4,4,4,4,4,4,4,4
"313",4157,-324.757894736842,4173,198.936842105263,221.905263157895,3698,-164.863157894737,3943,4289,29.0842105263158,-148.863157894737,4107,3937,-116.042105263158,100,0,1559,1771,521,4,4,4,4,4,4,4,4,4,4,4,4,4,4,4,4
"314",4156,-320.652631578947,4171,200.989473684211,227.547368421053,3699,-161.789473684211,3948,4290,31.1368421052632,-150.915789473684,4114,3938,-112.452631578947,101,0,1555,1775,475,4,4,4,4,4,4,4,4,4,4,4,4,4,4,4,4
"315",4159,-309.368421052632,4182,211.757894736842,234.221052631579,3712,-155.631578947368,3963,4294,46.0105263157895,-148.347368421053,4128,3941,-96.0421052631579,102,0,1559,1771,537,4,4,4,4,4,4,4,4,4,4,4,4,4,4,4,4
"316",4155,-304.757894736842,4188,217.4,229.6,3716,-158.2,3964,4294,52.1684210526316,-146.294736842105,4128,3940,-96.5473684210526,103,0,1555,1771,452,4,4,4,4,4,4,4,4,4,4,4,4,4,4,4,4
"317",4150,-309.368421052632,4178,213.810526315789,228.063157894737,3708,-161.273684210526,3956,4293,44.4736842105263,-149.368421052632,4125,3939,-103.221052631579,104,0,1555,1771,521,4,4,4,4,4,4,4,4,4,4,4,4,4,4,4,4
"318",4157,-302.705263157895,4177,215.347368421053,236.273684210526,3713,-158.2,3965,4292,49.0842105263158,-146.810526315789,4134,3941,-93.4736842105263,105,0,1555,1775,475,4,4,4,4,4,4,4,4,4,4,4,4,4,4,4,4
"319",4166,-292.452631578947,4185,226.126315789474,243.452631578947,3725,-154.610526315789,3977,4293,61.9052631578947,-140.136842105263,4141,3942,-84.2421052631579,106,0,1559,1771,537,4,4,4,4,4,4,4,4,4,4,4,4,4,4,4,4
"320",4169,-289.368421052632,4185,234.842105263158,242.421052631579,3729,-154.094736842105,3977,4296,63.4526315789474,-139.115789473684,4140,3942,-89.8842105263158,107,0,1555,1771,452,4,4,4,4,4,4,4,4,4,4,4,4,4,4,4,4
"321",4168,-295.010526315789,4184,233.305263157895,240.884210526316,3725,-155.631578947368,3973,4293,57.8105263157895,-144.757894736842,4137,3942,-100.136842105263,108,0,1555,1775,521,4,4,4,4,4,4,4,4,4,4,4,4,4,4,4,4
"322",4172,-298.6,4185,230.736842105263,242.936842105263,3727,-158.2,3975,4285,58.8315789473684,-148.347368421053,4139,3938,-98.6,109,0,1559,1771,475,4,4,4,4,4,4,4,4,4,4,4,4,4,4,4,4
"323",4183,-295.526315789474,4187,231.757894736842,245.494736842105,3730,-157.684210526316,3975,4285,58.8315789473684,-148.863157894737,4138,3934,-98.6,110,0,1555,1775,537,4,4,4,4,4,4,4,4,4,4,4,4,4,4,4,4
"324",4187,-299.115789473684,4186,226.126315789474,250.631578947368,3727,-155.126315789474,3969,4291,50.1157894736842,-148.347368421053,4130,3936,-112.452631578947,111,0,1559,1771,452,4,4,4,4,4,4,4,4,4,4,4,4,4,4,4,4
"325",4187,-308.863157894737,4190,215.863157894737,253.189473684211,3721,-154.610526315789,3963,4293,43.4526315789474,-148.863157894737,4121,3942,-125.273684210526,112,0,1555,1771,521,4,4,4,4,4,4,4,4,4,4,4,4,4,4,4,4
"326",4188,-309.368421052632,4189,212.789473684211,254.726315789474,3721,-154.610526315789,3960,4292,44.9894736842105,-148.863157894737,4120,3942,-124.242105263158,113,0,1555,1771,475,4,4,4,4,4,4,4,4,4,4,4,4,4,4,4,4
"327",4187,-300.652631578947,4187,222.536842105263,257.294736842105,3725,-154.094736842105,3966,4292,51.6526315789474,-149.368421052632,4128,3938,-118.094736842105,114,0,1555,1771,537,4,4,4,4,4,4,4,4,4,4,4,4,4,4,4,4
"328",4185,-292.452631578947,4187,233.810526315789,252.684210526316,3731,-155.631578947368,3975,4292,61.9052631578947,-151.421052631579,4140,3936,-108.347368421053,115,0,1559,1771,452,4,4,4,4,4,4,4,4,4,4,4,4,4,4,4,4
"329",4182,-290.4,4186,237.4,262.936842105263,3733,-159.221052631579,3979,4293,68.5789473684211,-150.4,4144,3937,-103.221052631579,116,0,1555,1771,521,4,4,4,4,4,4,4,4,4,4,4,4,4,4,4,4
"330",4172,-306.294736842105,4185,220.484210526316,296.273684210526,3717,-163.326315789474,3963,4295,52.6842105263158,-147.831578947368,4128,3939,-121.684210526316,117,0,1555,1775,475,4,4,4,4,4,4,4,4,4,4,4,4,4,4,4,4
"331",4165,-320.136842105263,4185,199.968421052632,314.221052631579,3696,-167.947368421053,3946,4295,34.7263157894737,-148.863157894737,4114,3940,-140.136842105263,118,0,1559,1767,537,4,4,4,4,4,4,4,4,4,4,4,4,4,4,4,4
"332",4163,-313.989473684211,4186,206.126315789474,304.989473684211,3697,-174.094736842105,3950,4295,39.8631578947368,-149.368421052632,4119,3940,-135.010526315789,119,0,1555,1775,452,4,4,4,4,4,4,4,4,4,4,4,4,4,4,4,4
"333",4162,-306.810526315789,4186,221.505263157895,301.4,3708,-173.073684210526,3960,4296,50.6315789473684,-144.242105263158,4127,3942,-122.189473684211,120,0,1555,1771,521,4,4,4,4,4,4,4,4,4,4,4,4,4,4,4,4
"334",4165,-309.884210526316,4188,219.452631578947,308.578947368421,3705,-165.378947368421,3957,4296,47.5473684210526,-140.136842105263,4122,3941,-122.705263157895,121,0,1551,1771,475,4,4,4,4,4,4,4,4,4,4,4,4,4,4,4,4
"335",4169,-309.884210526316,4188,215.347368421053,308.063157894737,3697,-164.863157894737,3954,4297,44.4736842105263,-137.063157894737,4121,3941,-124.242105263158,122,0,1555,1771,537,4,4,4,4,4,4,4,4,4,4,4,4,4,4,4,4
"336",4166,-305.273684210526,4189,228.684210526316,298.831578947368,3698,-171.536842105263,3961,4298,54.7263157894737,-134.505263157895,4132,3942,-115.526315789474,123,0,1559,1775,452,4,4,4,4,4,4,4,4,4,4,4,4,4,4,4,4
"337",4164,-306.294736842105,4187,234.326315789474,295.757894736842,3702,-173.578947368421,3959,4297,60.3684210526316,-133.989473684211,4137,3941,-116.042105263158,124,0,1555,1775,521,4,4,4,4,4,4,4,4,4,4,4,4,4,4,4,4
"338",4168,-304.242105263158,4188,231.252631578947,300.884210526316,3704,-168.968421052632,3959,4302,57.2947368421053,-134.505263157895,4132,3939,-123.221052631579,125,0,1559,1771,475,4,4,4,4,4,4,4,4,4,4,4,4,4,4,4,4
"339",4171,-295.010526315789,4191,240.484210526316,300.368421052632,3710,-164.863157894737,3971,4307,61.9052631578947,-133.473684210526,4137,3943,-115.010526315789,126,0,1555,1771,537,4,4,4,4,4,4,4,4,4,4,4,4,4,4,4,4
"340",4167,-286.294736842105,4189,255.863157894737,285.494736842105,3716,-170.505263157895,3984,4299,77.2947368421053,-133.473684210526,4153,3941,-94.5052631578947,127,0,1559,1775,452,4,4,4,4,4,4,4,4,4,4,4,4,4,4,4,4
"341",4155,-287.831578947368,4185,253.810526315789,283.957894736842,3715,-177.168421052632,3984,4294,80.3684210526316,-136.547368421053,4155,3930,-90.4,128,0,1555,1771,521,4,4,4,4,4,4,4,4,4,4,4,4,4,4,4,4
"342",4157,-286.810526315789,4186,252.273684210526,286.526315789474,3715,-171.021052631579,3981,4303,75.2421052631579,-134.505263157895,4153,3933,-96.0421052631579,0,0,1555,1775,388,4,4,4,4,4,4,4,4,4,4,4,4,4,4,4,4
"343",4169,-277.578947368421,4189,264.578947368421,250.115789473684,3722,-161.789473684211,3990,4303,86.0105263157895,-130.915789473684,4166,3942,-86.8105263157895,1,0,1559,1771,481,4,4,4,4,4,4,4,4,4,4,4,4,4,4,4,4
"344",4162,-269.884210526316,4186,273.810526315789,203.452631578947,3735,-164.863157894737,4006,4296,99.3473684210526,-131.936842105263,4175,3933,-68.8631578947368,2,0,1559,1771,433,4,4,4,4,4,4,4,4,4,4,4,4,4,4,4,4
"345",4150,-271.936842105263,4186,269.715789473684,197.294736842105,3736,-171.021052631579,4006,4297,97.8105263157895,-134.505263157895,4174,3925,-69.3684210526316,3,0,1559,1771,510,4,4,4,4,4,4,4,4,4,4,4,4,4,4,4,4
"346",4151,-278.6,4186,255.347368421053,208.578947368421,3724,-172.042105263158,3991,4300,89.6,-132.452631578947,4167,3931,-86.8105263157895,4,0,1559,1771,510,4,4,4,4,4,4,4,4,4,4,4,4,4,4,4,4
"347",4151,-273.989473684211,4185,254.842105263158,196.778947368421,3722,-169.989473684211,3991,4298,94.2210526315789,-131.936842105263,4166,3932,-87.8315789473684,5,0,1559,1771,502,4,4,4,4,4,4,4,4,4,4,4,4,4,4,4,4
"348",4143,-261.684210526316,4184,269.715789473684,185.494736842105,3737,-167.431578947368,4010,4296,107.042105263158,-129.884210526316,4177,3928,-65.7789473684211,6,0,1555,1771,473,4,4,4,4,4,4,4,4,4,4,4,4,4,4,4,4
"349",4139,-256.042105263158,4186,278.936842105263,185.494736842105,3745,-166.915789473684,4017,4297,112.684210526316,-127.831578947368,4189,3931,-54.5052631578947,7,0,1559,1771,486,4,4,4,4,4,4,4,4,4,4,4,4,4,4,4,4
"350",4139,-259.631578947368,4184,273.810526315789,178.315789473684,3740,-168.452631578947,4013,4297,110.631578947368,-131.936842105263,4187,3929,-60.1368421052632,8,0,1555,1771,522,4,4,4,4,4,4,4,4,4,4,4,4,4,4,4,4
"351",4141,-259.115789473684,4182,273.305263157895,171.136842105263,3738,-168.968421052632,4013,4294,109.6,-135.010526315789,4185,3928,-63.2210526315789,9,0,1555,1775,483,4,4,4,4,4,4,4,4,4,4,4,4,4,4,4,4
"352",4141,-264.757894736842,4183,270.221052631579,170.115789473684,3737,-171.021052631579,4009,4291,108.578947368421,-131.421052631579,4181,3928,-65.7789473684211,10,0,1559,1771,537,4,4,4,4,4,4,4,4,4,4,4,4,4,4,4,4
"353",4139,-270.4,4184,265.094736842105,171.136842105263,3735,-173.073684210526,4007,4294,107.042105263158,-129.368421052632,4178,3928,-70.4,11,0,1555,1775,452,4,4,4,4,4,4,4,4,4,4,4,4,4,4,4,4
"354",4138,-263.221052631579,4185,264.073684210526,171.136842105263,3732,-172.042105263158,4007,4295,107.547368421053,-130.4,4177,3928,-74.5052631578947,12,0,1559,1775,521,4,4,4,4,4,4,4,4,4,4,4,4,4,4,4,4
"355",4139,-259.115789473684,4184,261.505263157895,170.115789473684,3731,-171.536842105263,4005,4291,106.526315789474,-130.915789473684,4176,3928,-76.0421052631579,13,0,1559,1771,475,4,4,4,4,4,4,4,4,4,4,4,4,4,4,4,4
"356",4146,-260.652631578947,4185,266.126315789474,170.631578947368,3736,-172.557894736842,4011,4292,109.6,-131.936842105263,4181,3926,-70.9157894736842,14,0,1555,1771,537,4,4,4,4,4,4,4,4,4,4,4,4,4,4,4,4
"357",4152,-258.6,4186,272.789473684211,178.315789473684,3738,-168.452631578947,4016,4296,110.631578947368,-132.957894736842,4183,3927,-66.8105263157895,15,0,1551,1775,452,4,4,4,4,4,4,4,4,4,4,4,4,4,4,4,4
"358",4153,-261.168421052632,4187,266.631578947368,179.863157894737,3730,-166.4,4007,4295,100.884210526316,-132.957894736842,4172,3928,-76.5473684210526,16,0,1559,1775,0,4,4,4,4,4,4,4,4,4,4,4,4,4,4,4,4
"359",4149,-271.421052631579,4184,254.326315789474,175.242105263158,3724,-171.021052631579,3999,4293,93.7052631578947,-133.473684210526,4165,3927,-85.7789473684211,17,0,1555,1767,0,4,4,4,4,4,4,4,4,4,4,4,4,4,4,4,4
"360",4144,-274.505263157895,4183,255.347368421053,176.273684210526,3722,-174.610526315789,4001,4293,94.2210526315789,-136.042105263158,4167,3926,-87.8315789473684,18,0,1555,1775,0,4,4,4,4,4,4,4,4,4,4,4,4,4,4,4,4
"361",4137,-275.010526315789,4184,255.863157894737,175.242105263158,3718,-174.094736842105,3994,4290,94.2210526315789,-138.094736842105,4160,3925,-90.4,19,0,1559,1771,0,4,4,4,4,4,4,4,4,4,4,4,4,4,4,4,4
"362",4141,-275.010526315789,4183,252.273684210526,173.189473684211,3714,-170.505263157895,3986,4290,90.6315789473684,-137.063157894737,4154,3924,-92.9578947368421,20,0,1555,1775,0,4,4,4,4,4,4,4,4,4,4,4,4,4,4,4,4
"363",4150,-280.652631578947,4184,247.663157894737,179.863157894737,3710,-165.894736842105,3985,4294,82.9368421052632,-134.505263157895,4150,3926,-100.136842105263,21,0,1555,1775,0,4,4,4,4,4,4,4,4,4,4,4,4,4,4,4,4
"364",4147,-290.4,4185,242.021052631579,183.957894736842,3705,-168.452631578947,3979,4292,76.7789473684211,-139.115789473684,4141,3926,-108.347368421053,22,0,1555,1775,0,4,4,4,4,4,4,4,4,4,4,4,4,4,4,4,4
"365",4140,-293.473684210526,4183,235.863157894737,177.810526315789,3702,-175.126315789474,3974,4287,72.1684210526316,-145.778947368421,4135,3925,-113.473684210526,23,0,1559,1771,0,4,4,4,4,4,4,4,4,4,4,4,4,4,4,4,4
"366",4145,-289.884210526316,4183,237.915789473684,171.652631578947,3701,-172.042105263158,3978,4289,70.1157894736842,-143.221052631579,4139,3925,-112.452631578947,24,0,1555,1775,0,4,4,4,4,4,4,4,4,4,4,4,4,4,4,4,4
"367",4153,-287.315789473684,4184,246.631578947368,169.084210526316,3701,-167.947368421053,3984,4292,74.2210526315789,-137.578947368421,4142,3926,-105.778947368421,25,0,1559,1775,0,4,4,4,4,4,4,4,4,4,4,4,4,4,4,4,4
"368",4147,-287.315789473684,4184,244.578947368421,174.221052631579,3702,-171.536842105263,3982,4292,78.3157894736842,-138.094736842105,4141,3925,-101.684210526316,26,0,1559,1771,0,4,4,4,4,4,4,4,4,4,4,4,4,4,4,4,4
"369",4137,-296.547368421053,4184,229.715789473684,181.4,3691,-174.610526315789,3968,4292,67.0421052631579,-140.652631578947,4132,3925,-115.526315789474,27,0,1555,1775,0,4,4,4,4,4,4,4,4,4,4,4,4,4,4,4,4
"370",4136,-329.884210526316,4181,199.968421052632,179.863157894737,3662,-176.663157894737,3937,4291,33.7052631578947,-139.631578947368,4096,3925,-143.726315789474,28,0,1559,1771,0,4,4,4,4,4,4,4,4,4,4,4,4,4,4,4,4
"371",4139,327.147368421053,4177,170.736842105263,177.294736842105,3634,-180.768421052632,3901,4290,-1.16842105263158,-137.578947368421,4056,3924,-166.294736842105,29,0,1559,1771,0,4,4,4,4,4,4,4,4,4,4,4,4,4,4,4,4
"372",4137,311.252631578947,4179,152.273684210526,180.368421052632,3623,-179.221052631579,3882,4292,-19.6315789473684,-136.547368421053,4039,3924,-183.726315789474,30,0,1555,1771,0,4,4,4,4,4,4,4,4,4,4,4,4,4,4,4,4
"373",4139,305.094736842105,4188,143.557894736842,182.936842105263,3609,-172.042105263158,3878,4295,-23.7263157894737,-135.010526315789,4033,3927,-196.042105263158,31,0,1559,1771,0,4,4,4,4,4,4,4,4,4,4,4,4,4,4,4,4
"374",4142,296.378947368421,4195,133.305263157895,182.936842105263,3589,-171.021052631579,3870,4295,-32.4526315789474,-135.010526315789,4019,3929,-201.684210526316,32,0,1555,1771,0,4,4,4,4,4,4,4,4,4,4,4,4,4,4,4,4
"375",4136,292.273684210526,4194,130.221052631579,182.421052631579,3584,-172.557894736842,3864,4293,-37.5789473684211,-135.526315789474,4014,3926,-206.294736842105,33,0,1559,1771,0,4,4,4,4,4,4,4,4,4,4,4,4,4,4,4,4
"376",4135,293.810526315789,4177,133.810526315789,179.863157894737,3589,-176.147368421053,3863,4291,-36.0421052631579,-137.063157894737,4017,3924,-212.957894736842,34,0,1555,1771,0,4,4,4,4,4,4,4,4,4,4,4,4,4,4,4,4
"377",4137,291.757894736842,4193,130.221052631579,177.810526315789,3589,-176.147368421053,3864,4291,-40.6526315789474,-140.136842105263,4014,3924,-214.505263157895,35,0,1559,1771,0,4,4,4,4,4,4,4,4,4,4,4,4,4,4,4,4
"378",4135,291.252631578947,4193,129.2,178.831578947368,3584,-175.126315789474,3863,4292,-41.6842105263158,-143.221052631579,4014,3922,-213.473684210526,36,0,1551,1771,0,4,4,4,4,4,4,4,4,4,4,4,4,4,4,4,4
"379",4130,291.252631578947,4024,132.789473684211,181.4,3585,-178.715789473684,3861,4286,-39.1157894736842,-141.168421052632,4017,3921,-215.010526315789,37,0,1559,1775,0,4,4,4,4,4,4,4,4,4,4,4,4,4,4,4,4
"380",4134,299.452631578947,3823,145.094736842105,185.494736842105,3597,-178.2,3870,4285,-31.9368421052632,-135.526315789474,4022,3925,-203.726315789474,38,0,1555,1767,0,4,4,4,4,4,4,4,4,4,4,4,4,4,4,4,4
"381",4137,304.073684210526,3804,146.631578947368,192.684210526316,3607,-172.042105263158,3873,4291,-27.3157894736842,-133.473684210526,4027,3928,-195.010526315789,39,0,1551,1771,0,4,4,4,4,4,4,4,4,4,4,4,4,4,4,4,4
"382",4134,302.536842105263,3857,145.610526315789,194.726315789474,3604,-171.021052631579,3864,4292,-26.8105263157895,-133.989473684211,4028,3925,-200.136842105263,40,0,1555,1771,0,4,4,4,4,4,4,4,4,4,4,4,4,4,4,4,4
"383",4133,309.2,3838,158.431578947368,189.084210526316,3602,-173.073684210526,3867,4287,-23.2210526315789,-134.505263157895,4034,3925,-192.452631578947,41,0,1555,1771,0,4,4,4,4,4,4,4,4,4,4,4,4,4,4,4,4
"384",4132,321.505263157895,3830,178.431578947368,184.989473684211,3612,-171.021052631579,3883,4283,-14.5052631578947,-136.042105263158,4045,3926,-174.505263157895,42,0,1555,1771,0,4,4,4,4,4,4,4,4,4,4,4,4,4,4,4,4
"385",4126,321.505263157895,3857,182.021052631579,184.473684210526,3619,-171.021052631579,3882,4284,-11.4210526315789,-136.042105263158,4048,3925,-176.547368421053,43,0,1551,1775,0,4,4,4,4,4,4,4,4,4,4,4,4,4,4,4,4
"386",4127,319.968421052632,3858,178.431578947368,189.084210526316,3618,-173.073684210526,3878,4287,-10.4,-133.989473684211,4048,3924,-178.6,44,0,1559,1771,0,4,4,4,4,4,4,4,4,4,4,4,4,4,4,4,4
"387",4132,328.684210526316,3860,183.557894736842,195.242105263158,3621,-172.557894736842,3885,4290,-3.22105263157895,-133.473684210526,4051,3926,-166.294736842105,45,0,1551,1771,0,4,4,4,4,4,4,4,4,4,4,4,4,4,4,4,4
"388",4125,327.663157894737,3862,177.4,189.084210526316,3622,-178.2,3885,4286,-5.27368421052632,-134.505263157895,4053,3928,-169.368421052632,46,0,1555,1771,0,4,4,4,4,4,4,4,4,4,4,4,4,4,4,4,4
"389",4121,322.021052631579,3862,171.252631578947,179.347368421053,3617,-182.305263157895,3881,4281,-9.88421052631579,-136.042105263158,4052,3919,-179.115789473684,47,0,1559,1767,0,4,4,4,4,4,4,4,4,4,4,4,4,4,4,4,4
"390",4123,314.842105263158,3858,165.094736842105,199.863157894737,3605,-182.305263157895,3874,4281,-16.0421052631579,-136.547368421053,4044,3915,-182.705263157895,48,0,1555,1771,0,4,4,4,4,4,4,4,4,4,4,4,4,4,4,4,4
"391",4122,304.073684210526,3857,154.842105263158,236.778947368421,3591,-183.842105263158,3861,4285,-27.8315789473684,-138.094736842105,4030,3924,-193.473684210526,49,0,1555,1771,0,4,4,4,4,4,4,4,4,4,4,4,4,4,4,4,4
"392",4120,302.021052631579,3864,150.736842105263,250.115789473684,3588,-183.842105263158,3858,4286,-33.4736842105263,-139.115789473684,4028,3928,-199.631578947368,50,0,1555,1771,0,4,4,4,4,4,4,4,4,4,4,4,4,4,4,4,4
"393",4122,306.631578947368,3867,151.757894736842,244.473684210526,3590,-183.326315789474,3863,4289,-30.4,-137.578947368421,4031,3925,-197.578947368421,51,0,1555,1767,0,4,4,4,4,4,4,4,4,4,4,4,4,4,4,4,4
"394",4119,297.915789473684,3863,139.452631578947,242.936842105263,3578,-185.378947368421,3854,4294,-37.0631578947368,-135.526315789474,4022,3926,-205.778947368421,52,0,1555,1775,0,4,4,4,4,4,4,4,4,4,4,4,4,4,4,4,4
"395",4116,289.2,3862,127.663157894737,246.010526315789,3568,-185.378947368421,3844,4290,-47.3157894736842,-135.526315789474,4013,3926,-216.547368421053,53,0,1559,1771,0,4,4,4,4,4,4,4,4,4,4,4,4,4,4,4,4
"396",4120,293.305263157895,3872,132.273684210526,241.905263157895,3570,-182.810526315789,3846,4288,-41.6842105263158,-137.063157894737,4015,3925,-216.042105263158,54,0,1551,1771,0,4,4,4,4,4,4,4,4,4,4,4,4,4,4,4,4
"397",4121,296.378947368421,3877,138.431578947368,239.863157894737,3577,-181.789473684211,3852,4293,-33.4736842105263,-136.042105263158,4018,3928,-214.505263157895,55,0,1559,1771,0,4,4,4,4,4,4,4,4,4,4,4,4,4,4,4,4
"398",4121,299.968421052632,3880,148.684210526316,239.863157894737,3584,-182.305263157895,3861,4296,-29.8842105263158,-133.473684210526,4023,3929,-209.368421052632,56,0,1555,1771,0,4,4,4,4,4,4,4,4,4,4,4,4,4,4,4,4
"399",4123,305.094736842105,3878,156.378947368421,236.778947368421,3589,-183.842105263158,3865,4294,-29.8842105263158,-132.957894736842,4027,3927,-207.831578947368,57,0,1555,1775,0,4,4,4,4,4,4,4,4,4,4,4,4,4,4,4,4
"400",4122,306.126315789474,3878,155.347368421053,235.757894736842,3585,-188.968421052632,3862,4295,-30.4,-134.505263157895,4027,3926,-213.989473684211,58,0,1555,1771,0,4,4,4,4,4,4,4,4,4,4,4,4,4,4,4,4
"401",4120,305.610526315789,3879,154.326315789474,236.778947368421,3587,-188.968421052632,3864,4297,-23.2210526315789,-135.526315789474,4030,3927,-206.294736842105,59,0,1555,1775,0,4,4,4,4,4,4,4,4,4,4,4,4,4,4,4,4
"402",4122,308.684210526316,3881,160.484210526316,231.652631578947,3592,-187.947368421053,3870,4294,-16.5473684210526,-135.010526315789,4040,3927,-193.473684210526,60,0,1555,1771,0,4,4,4,4,4,4,4,4,4,4,4,4,4,4,4,4
"403",4114,304.578947368421,3878,158.936842105263,232.168421052632,3581,-194.094736842105,3867,4291,-26.2947368421053,-135.526315789474,4033,3927,-202.189473684211,61,0,1555,1779,0,4,4,4,4,4,4,4,4,4,4,4,4,4,4,4,4
"404",4107,296.894736842105,3882,152.789473684211,232.168421052632,3567,-196.663157894737,3858,4291,-38.0947368421053,-135.526315789474,4019,3926,-217.578947368421,62,0,1559,1771,0,4,4,4,4,4,4,4,4,4,4,4,4,4,4,4,4
"405",4116,297.915789473684,3891,155.347368421053,204.989473684211,3573,-186.915789473684,3858,4294,-32.4526315789474,-133.473684210526,4025,3927,-212.452631578947,63,0,1551,1775,0,4,4,4,4,4,4,4,4,4,4,4,4,4,4,4,4
"406",4124,307.147368421053,3892,162.536842105263,167.547368421053,3588,-176.663157894737,3872,4295,-23.7263157894737,-132.957894736842,4038,3928,-201.168421052632,64,0,1559,1775,388,4,4,4,4,4,4,4,4,4,4,4,4,4,4,4,4
"407",4119,316.378947368421,3891,168.168421052632,152.168421052632,3590,-177.684210526316,3880,4295,-19.6315789473684,-130.915789473684,4041,3928,-198.6,65,0,1559,1771,481,4,4,4,4,4,4,4,4,4,4,4,4,4,4,4,4
"408",4118,319.968421052632,3894,170.221052631579,155.757894736842,3595,-182.305263157895,3885,4294,-9.36842105263158,-126.810526315789,4049,3928,-189.884210526316,66,0,1555,1775,433,4,4,4,4,4,4,4,4,4,4,4,4,4,4,4,4
"409",4124,324.073684210526,3897,174.326315789474,162.421052631579,3605,-180.252631578947,3893,4295,1.90526315789474,-124.242105263158,4063,3928,-176.042105263158,67,0,1559,1775,510,4,4,4,4,4,4,4,4,4,4,4,4,4,4,4,4
"410",4117,322.021052631579,3895,170.221052631579,163.957894736842,3598,-179.221052631579,3890,4296,-4.7578947368421,-125.273684210526,4058,3929,-177.063157894737,68,0,1559,1775,510,4,4,4,4,4,4,4,4,4,4,4,4,4,4,4,4
"411",4108,313.305263157895,3894,157.4,157.294736842105,3584,-187.947368421053,3876,4293,-19.1157894736842,-130.4,4042,3926,-194.505263157895,69,0,1555,1771,502,4,4,4,4,4,4,4,4,4,4,4,4,4,4,4,4
"412",4106,309.2,3894,151.252631578947,154.726315789474,3587,-194.610526315789,3875,4287,-20.1368421052632,-135.526315789474,4042,3925,-200.652631578947,70,0,1555,1771,473,4,4,4,4,4,4,4,4,4,4,4,4,4,4,4,4
"413",4109,318.936842105263,3898,156.894736842105,158.831578947368,3598,-188.968421052632,3890,4290,-6.29473684210526,-131.936842105263,4055,3927,-186.294736842105,71,0,1555,1775,486,4,4,4,4,4,4,4,4,4,4,4,4,4,4,4,4
"414",4109,322.536842105263,3904,157.4,162.421052631579,3596,-185.378947368421,3894,4296,-1.16842105263158,-123.726315789474,4057,3928,-182.189473684211,72,0,1555,1771,522,4,4,4,4,4,4,4,4,4,4,4,4,4,4,4,4
"415",4108,316.894736842105,3906,153.810526315789,162.936842105263,3589,-187.947368421053,3886,4290,-9.88421052631579,-126.810526315789,4052,3927,-195.010526315789,73,0,1555,1775,483,4,4,4,4,4,4,4,4,4,4,4,4,4,4,4,4
"416",4109,316.894736842105,3906,155.863157894737,156.778947368421,3589,-188.968421052632,3882,4280,-16.0421052631579,-134.505263157895,4049,3925,-198.094736842105,74,0,1559,1775,537,4,4,4,4,4,4,4,4,4,4,4,4,4,4,4,4
"417",4109,317.4,3903,154.326315789474,157.810526315789,3590,-188.968421052632,3882,4279,-13.9894736842105,-134.505263157895,4044,3924,-191.421052631579,75,0,1555,1771,452,4,4,4,4,4,4,4,4,4,4,4,4,4,4,4,4
"418",4108,305.610526315789,3904,145.610526315789,186.526315789474,3579,-194.094736842105,3871,4282,-21.1684210526316,-134.505263157895,4034,3924,-201.168421052632,76,0,1559,1775,521,4,4,4,4,4,4,4,4,4,4,4,4,4,4,4,4
"419",4104,292.273684210526,3906,135.863157894737,220.884210526316,3567,-198.2,3857,4282,-36.5473684210526,-137.578947368421,4022,3925,-217.578947368421,77,0,1559,1771,475,4,4,4,4,4,4,4,4,4,4,4,4,4,4,4,4
"420",4100,294.326315789474,3910,135.863157894737,229.6,3570,-195.126315789474,3860,4281,-37.0631578947368,-138.6,4019,3926,-218.094736842105,78,0,1555,1775,537,4,4,4,4,4,4,4,4,4,4,4,4,4,4,4,4
"421",4104,298.431578947368,3910,142.536842105263,229.084210526316,3575,-188.968421052632,3867,4285,-30.4,-136.042105263158,4024,3927,-210.915789473684,79,0,1555,1771,452,4,4,4,4,4,4,4,4,4,4,4,4,4,4,4,4
"422",4109,301.505263157895,3918,144.578947368421,236.273684210526,3573,-187.431578947368,3868,4291,-29.8842105263158,-132.957894736842,4028,3929,-213.473684210526,80,0,1559,1775,521,4,4,4,4,4,4,4,4,4,4,4,4,4,4,4,4
"423",4102,303.042105263158,3921,137.915789473684,236.273684210526,3570,-190.505263157895,3866,4290,-33.4736842105263,-131.936842105263,4026,3930,-216.547368421053,81,0,1559,1771,475,4,4,4,4,4,4,4,4,4,4,4,4,4,4,4,4
"424",4092,302.021052631579,3915,138.936842105263,226.526315789474,3571,-190.505263157895,3867,4289,-28.8631578947368,-134.505263157895,4028,3930,-206.810526315789,82,0,1555,1775,537,4,4,4,4,4,4,4,4,4,4,4,4,4,4,4,4
"425",4092,302.536842105263,3920,151.252631578947,223.452631578947,3575,-188.968421052632,3877,4292,-18.0947368421053,-131.421052631579,4036,3929,-196.042105263158,83,0,1559,1775,452,4,4,4,4,4,4,4,4,4,4,4,4,4,4,4,4
"426",4095,310.736842105263,3928,155.347368421053,226.526315789474,3579,-188.968421052632,3884,4296,-12.9578947368421,-127.831578947368,4041,3931,-196.042105263158,84,0,1555,1771,521,4,4,4,4,4,4,4,4,4,4,4,4,4,4,4,4
"427",4092,308.168421052632,3928,140.989473684211,221.4,3569,-192.042105263158,3876,4294,-19.6315789473684,-131.421052631579,4033,3931,-205.273684210526,85,0,1559,1775,475,4,4,4,4,4,4,4,4,4,4,4,4,4,4,4,4
"428",4086,292.789473684211,3923,127.663157894737,212.168421052632,3557,-198.2,3862,4285,-33.4736842105263,-134.505263157895,4021,3929,-211.421052631579,86,0,1559,1775,537,4,4,4,4,4,4,4,4,4,4,4,4,4,4,4,4
"429",4082,288.684210526316,3925,122.021052631579,209.084210526316,3552,-203.326315789474,3857,4283,-42.1894736842105,-132.452631578947,4016,3929,-219.631578947368,87,0,1559,1775,452,4,4,4,4,4,4,4,4,4,4,4,4,4,4,4,4
"430",4079,289.2,3923,114.326315789474,212.684210526316,3550,-203.842105263158,3859,4287,-45.7789473684211,-133.473684210526,4013,3930,-229.884210526316,88,0,1555,1771,521,4,4,4,4,4,4,4,4,4,4,4,4,4,4,4,4
"431",4082,291.757894736842,3925,116.894736842105,213.705263157895,3552,-203.326315789474,3860,4285,-39.6315789473684,-136.547368421053,4013,3929,-225.778947368421,89,0,1555,1775,475,4,4,4,4,4,4,4,4,4,4,4,4,4,4,4,4
"432",4083,294.326315789474,3928,123.042105263158,207.042105263158,3558,-204.357894736842,3862,4278,-33.9894736842105,-136.547368421053,4018,3927,-216.547368421053,90,0,1559,1771,537,4,4,4,4,4,4,4,4,4,4,4,4,4,4,4,4
"433",4080,298.431578947368,3930,121.505263157895,201.4,3559,-203.842105263158,3863,4281,-34.5052631578947,-136.042105263158,4021,3926,-214.505263157895,91,0,1555,1775,452,4,4,4,4,4,4,4,4,4,4,4,4,4,4,4,4
"434",4078,297.915789473684,3932,119.968421052632,206.010526315789,3554,-202.810526315789,3863,4283,-35.0105263157895,-133.473684210526,4018,3927,-216.547368421053,92,0,1555,1771,521,4,4,4,4,4,4,4,4,4,4,4,4,4,4,4,4
"435",4083,300.484210526316,3934,128.168421052632,193.705263157895,3559,-198.715789473684,3869,4281,-29.3684210526316,-131.421052631579,4024,3929,-211.421052631579,93,0,1551,1771,475,4,4,4,4,4,4,4,4,4,4,4,4,4,4,4,4
"436",4085,306.126315789474,3936,138.431578947368,147.547368421053,3569,-196.147368421053,3880,4283,-20.1368421052632,-133.473684210526,4035,3928,-204.242105263158,94,0,1555,1771,537,4,4,4,4,4,4,4,4,4,4,4,4,4,4,4,4
"437",4084,313.305263157895,3934,146.631578947368,113.189473684211,3579,-198.2,3888,4281,-10.4,-133.473684210526,4045,3925,-196.042105263158,95,0,1555,1771,452,4,4,4,4,4,4,4,4,4,4,4,4,4,4,4,4
"438",4086,326.631578947368,3935,159.452631578947,115.757894736842,3588,-200.768421052632,3900,4278,-0.652631578947368,-131.421052631579,4055,3925,-183.221052631579,96,0,1559,1775,521,4,4,4,4,4,4,4,4,4,4,4,4,4,4,4,4
"439",4088,334.326315789474,3935,163.042105263158,123.452631578947,3593,-200.252631578947,3913,4278,3.45263157894737,-132.452631578947,4065,3925,-176.547368421053,97,0,1559,1771,475,4,4,4,4,4,4,4,4,4,4,4,4,4,4,4,4
"440",4086,329.715789473684,3938,157.4,118.315789473684,3593,-201.789473684211,3905,4278,1.90526315789474,-135.010526315789,4064,3924,-181.684210526316,98,0,1555,1775,537,4,4,4,4,4,4,4,4,4,4,4,4,4,4,4,4
"441",4087,320.989473684211,3939,154.842105263158,118.315789473684,3586,-204.863157894737,3892,4278,-1.16842105263158,-135.010526315789,4057,3923,-186.294736842105,99,0,1559,1767,452,4,4,4,4,4,4,4,4,4,4,4,4,4,4,4,4
"442",4090,330.221052631579,3941,166.631578947368,122.936842105263,3589,-202.305263157895,3904,4277,6.01052631578947,-131.936842105263,4067,3925,-179.631578947368,100,0,1555,1775,521,4,4,4,4,4,4,4,4,4,4,4,4,4,4,4,4
"443",4091,340.989473684211,3942,173.305263157895,117.294736842105,3603,-196.147368421053,3916,4278,14.7263157894737,-126.294736842105,4077,3925,-177.578947368421,101,0,1559,1771,475,4,4,4,4,4,4,4,4,4,4,4,4,4,4,4,4
"444",4092,337.915789473684,3944,170.736842105263,110.115789473684,3605,-195.631578947368,3911,4278,13.7052631578947,-126.294736842105,4072,3925,-180.652631578947,102,0,1555,1771,537,4,4,4,4,4,4,4,4,4,4,4,4,4,4,4,4
"445",4093,332.273684210526,3945,163.557894736842,106.010526315789,3591,-201.789473684211,3908,4277,10.1157894736842,-131.936842105263,4070,3924,-180.136842105263,103,0,1559,1771,452,4,4,4,4,4,4,4,4,4,4,4,4,4,4,4,4
"446",4087,334.842105263158,3942,161.505263157895,99.8631578947368,3592,-203.842105263158,3911,4278,12.6842105263158,-130.915789473684,4076,3918,-178.6,104,0,1555,1771,521,4,4,4,4,4,4,4,4,4,4,4,4,4,4,4,4
"447",4083,344.578947368421,3946,166.126315789474,93.7052631578947,3603,-204.357894736842,3912,4277,16.7789473684211,-126.810526315789,4078,3912,-172.452631578947,105,0,1559,1771,475,4,4,4,4,4,4,4,4,4,4,4,4,4,4,4,4
"448",4089,-339.115789473684,3948,167.147368421053,95.2421052631579,3607,-204.357894736842,3921,4274,19.8631578947368,-126.294736842105,4080,3911,-166.810526315789,106,0,1555,1771,537,4,4,4,4,4,4,4,4,4,4,4,4,4,4,4,4
"449",4096,-337.578947368421,3952,166.631578947368,94.7263157894737,3613,-199.221052631579,3928,4276,28.5789473684211,-126.810526315789,4088,3919,-165.778947368421,107,0,1555,1771,452,4,4,4,4,4,4,4,4,4,4,4,4,4,4,4,4
"450",4094,-336.042105263158,3955,168.684210526316,91.6526315789474,3623,-194.610526315789,3930,4278,33.1894736842105,-126.810526315789,4095,3924,-160.652631578947,108,0,1555,1771,521,4,4,4,4,4,4,4,4,4,4,4,4,4,4,4,4
"451",4094,-328.863157894737,3954,171.757894736842,88.0631578947368,3625,-197.168421052632,3937,4271,32.6842105263158,-126.810526315789,4097,3916,-157.063157894737,109,0,1555,1771,475,4,4,4,4,4,4,4,4,4,4,4,4,4,4,4,4
"452",4094,-330.4,3953,163.042105263158,79.8631578947368,3622,-200.252631578947,3936,4263,30.6315789473684,-130.4,4094,3911,-164.242105263158,110,0,1555,1775,537,4,4,4,4,4,4,4,4,4,4,4,4,4,4,4,4
"453",4096,-336.547368421053,3957,160.989473684211,79.8631578947368,3621,-197.684210526316,3929,4266,31.6526315789474,-136.547368421053,4090,3914,-165.778947368421,111,0,1559,1771,452,4,4,4,4,4,4,4,4,4,4,4,4,4,4,4,4
"454",4101,-335.010526315789,3962,170.221052631579,90.6315789473684,3621,-195.126315789474,3929,4270,33.7052631578947,-132.957894736842,4093,3915,-161.168421052632,112,0,1551,1771,521,4,4,4,4,4,4,4,4,4,4,4,4,4,4,4,4
"455",4102,-335.526315789474,3960,173.305263157895,96.2736842105263,3618,-195.126315789474,3930,4268,31.1368421052632,-124.757894736842,4093,3914,-163.726315789474,113,0,1559,1775,475,4,4,4,4,4,4,4,4,4,4,4,4,4,4,4,4
"456",4094,-341.684210526316,3959,170.736842105263,89.0842105263158,3613,-198.715789473684,3925,4267,29.0842105263158,-128.347368421053,4089,3914,-167.831578947368,114,0,1555,1771,537,4,4,4,4,4,4,4,4,4,4,4,4,4,4,4,4
"457",4091,-338.094736842105,3958,174.326315789474,86.5263157894737,3619,-199.221052631579,3930,4269,32.1684210526316,-134.505263157895,4092,3911,-166.294736842105,115,0,1555,1771,452,4,4,4,4,4,4,4,4,4,4,4,4,4,4,4,4
"458",4095,-336.042105263158,3964,174.842105263158,109.084210526316,3619,-197.168421052632,3929,4272,29.0842105263158,-131.936842105263,4089,3912,-179.631578947368,116,0,1559,1771,521,4,4,4,4,4,4,4,4,4,4,4,4,4,4,4,4
"459",4091,336.894736842105,3962,160.989473684211,140.884210526316,3596,-201.273684210526,3912,4272,10.6315789473684,-130.915789473684,4071,3915,-197.578947368421,117,0,1555,1775,475,4,4,4,4,4,4,4,4,4,4,4,4,4,4,4,4
"460",4087,330.736842105263,3959,153.305263157895,148.063157894737,3585,-209.484210526316,3905,4271,1.90526315789474,-134.505263157895,4062,3911,-192.452631578947,118,0,1555,1771,537,4,4,4,4,4,4,4,4,4,4,4,4,4,4,4,4
"461",4084,333.305263157895,3961,149.715789473684,138.831578947368,3592,-211.536842105263,3904,4270,2.42105263157895,-134.505263157895,4064,3909,-186.294736842105,119,0,1555,1775,452,4,4,4,4,4,4,4,4,4,4,4,4,4,4,4,4
"462",4083,327.663157894737,3966,139.968421052632,140.884210526316,3584,-208.452631578947,3898,4272,-0.136842105263158,-133.989473684211,4062,3911,-195.010526315789,120,0,1559,1771,521,4,4,4,4,4,4,4,4,4,4,4,4,4,4,4,4
"463",4084,319.452631578947,3967,127.147368421053,144.989473684211,3568,-208.968421052632,3890,4273,-7.31578947368421,-133.473684210526,4050,3911,-203.726315789474,121,0,1555,1771,475,4,4,4,4,4,4,4,4,4,4,4,4,4,4,4,4
"464",4085,319.452631578947,3963,122.536842105263,141.4,3568,-212.557894736842,3887,4268,-10.9157894736842,-133.473684210526,4044,3909,-208.347368421053,122,0,1559,1775,537,4,4,4,4,4,4,4,4,4,4,4,4,4,4,4,4
"465",4082,318.936842105263,3965,122.536842105263,138.831578947368,3569,-212.042105263158,3889,4269,-7.83157894736842,-133.989473684211,4047,3907,-212.957894736842,123,0,1555,1775,452,4,4,4,4,4,4,4,4,4,4,4,4,4,4,4,4
"466",4081,317.4,3968,122.536842105263,139.863157894737,3570,-207.947368421053,3889,4274,-6.81052631578947,-132.957894736842,4047,3909,-210.915789473684,124,0,1559,1775,521,4,4,4,4,4,4,4,4,4,4,4,4,4,4,4,4
"467",4082,317.915789473684,3970,127.147368421053,138.315789473684,3571,-211.536842105263,3882,4269,-15.5263157894737,-134.505263157895,4041,3908,-214.505263157895,125,0,1555,1771,475,4,4,4,4,4,4,4,4,4,4,4,4,4,4,4,4
"468",4079,316.894736842105,3966,136.894736842105,135.757894736842,3568,-213.073684210526,3881,4262,-17.0631578947368,-136.547368421053,4043,3901,-217.578947368421,126,0,1559,1775,537,4,4,4,4,4,4,4,4,4,4,4,4,4,4,4,4
"469",4081,323.557894736842,3969,151.252631578947,137.810526315789,3573,-205.894736842105,3892,4270,-4.2421052631579,-136.547368421053,4056,3900,-203.221052631579,127,0,1559,1771,452,4,4,4,4,4,4,4,4,4,4,4,4,4,4,4,4
"470",4085,332.273684210526,3973,154.842105263158,142.421052631579,3587,-205.378947368421,3898,4274,0.884210526315789,-133.989473684211,4061,3908,-193.473684210526,128,0,1555,1775,521,4,4,4,4,4,4,4,4,4,4,4,4,4,4,4,4
"471",4084,335.863157894737,3974,159.968421052632,141.4,3590,-207.947368421053,3904,4274,4.98947368421053,-133.473684210526,4066,3906,-196.547368421053,0,0,1559,1775,384,4,4,4,4,4,4,4,4,4,4,4,4,4,4,4,4
"472",4082,333.810526315789,3973,167.663157894737,142.936842105263,3591,-204.357894736842,3908,4273,11.6526315789474,-135.010526315789,4072,3898,-197.578947368421,1,0,1555,1775,481,4,4,4,4,4,4,4,4,4,4,4,4,4,4,4,4
"473",4086,337.915789473684,3975,173.810526315789,149.6,3599,-200.768421052632,3912,4273,14.2210526315789,-135.010526315789,4077,3897,-191.421052631579,2,0,1555,1775,435,4,4,4,4,4,4,4,4,4,4,4,4,4,4,4,4
"474",4092,-341.684210526316,3979,178.431578947368,151.136842105263,3608,-201.273684210526,3923,4278,22.9368421052632,-133.473684210526,4085,3899,-177.063157894737,3,0,1555,1771,510,4,4,4,4,4,4,4,4,4,4,4,4,4,4,4,4
"475",4092,-331.421052631579,3979,184.073684210526,148.063157894737,3617,-199.221052631579,3933,4274,35.2421052631579,-132.452631578947,4096,3897,-163.726315789474,4,0,1559,1775,510,4,4,4,4,4,4,4,4,4,4,4,4,4,4,4,4
"476",4091,-326.810526315789,3982,186.126315789474,145.494736842105,3623,-198.2,3936,4267,35.7578947368421,-135.010526315789,4104,3895,-162.705263157895,5,0,1555,1775,502,4,4,4,4,4,4,4,4,4,4,4,4,4,4,4,4
"477",4090,-327.315789473684,3983,186.126315789474,147.042105263158,3622,-199.221052631579,3938,4270,35.2421052631579,-133.473684210526,4106,3895,-159.631578947368,6,0,1559,1775,473,4,4,4,4,4,4,4,4,4,4,4,4,4,4,4,4
"478",4091,-322.705263157895,3988,187.147368421053,153.189473684211,3628,-197.684210526316,3943,4277,43.9578947368421,-128.347368421053,4109,3896,-149.884210526316,7,0,1559,1767,486,4,4,4,4,4,4,4,4,4,4,4,4,4,4,4,4
"479",4090,-321.168421052632,3991,180.989473684211,158.831578947368,3635,-196.663157894737,3944,4271,43.9578947368421,-130.4,4108,3895,-152.957894736842,8,0,1555,1779,522,4,4,4,4,4,4,4,4,4,4,4,4,4,4,4,4
"480",4094,-329.884210526316,3992,173.305263157895,156.778947368421,3626,-195.126315789474,3937,4264,32.1684210526316,-134.505263157895,4096,3889,-163.726315789474,9,0,1559,1771,483,4,4,4,4,4,4,4,4,4,4,4,4,4,4,4,4
"481",4095,341.505263157895,3987,162.021052631579,157.810526315789,3610,-195.631578947368,3917,4264,16.7789473684211,-136.042105263158,4074,3881,-175.526315789474,10,0,1559,1771,537,4,4,4,4,4,4,4,4,4,4,4,4,4,4,4,4
"482",4088,333.305263157895,3985,160.484210526316,154.726315789474,3600,-199.736842105263,3903,4262,8.57894736842105,-136.042105263158,4063,3879,-183.726315789474,11,0,1555,1775,452,4,4,4,4,4,4,4,4,4,4,4,4,4,4,4,4
"483",4090,-342.705263157895,3987,178.431578947368,126.526315789474,3610,-198.715789473684,3917,4259,19.3473684210526,-137.063157894737,4077,3881,-175.526315789474,12,0,1555,1775,521,4,4,4,4,4,4,4,4,4,4,4,4,4,4,4,4
"484",4104,-323.221052631579,3987,197.4,91.6526315789474,3634,-188.452631578947,3945,4262,39.3473684210526,-135.010526315789,4101,3881,-153.989473684211,13,0,1559,1771,475,4,4,4,4,4,4,4,4,4,4,4,4,4,4,4,4
"485",4107,-319.115789473684,3987,199.968421052632,78.3157894736842,3642,-188.452631578947,3951,4260,48.0631578947368,-134.505263157895,4109,3877,-144.242105263158,14,0,1555,1775,537,4,4,4,4,4,4,4,4,4,4,4,4,4,4,4,4
"486",4096,-319.631578947368,3988,199.968421052632,80.3684210526316,3637,-196.147368421053,3945,4251,47.5473684210526,-137.063157894737,4108,3877,-141.168421052632,15,0,1559,1771,452,4,4,4,4,4,4,4,4,4,4,4,4,4,4,4,4
"487",4095,-314.505263157895,3989,202.536842105263,78.3157894736842,3638,-192.042105263158,3951,4252,51.6526315789474,-135.010526315789,4111,3879,-135.526315789474,16,0,1559,1775,0,4,4,4,4,4,4,4,4,4,4,4,4,4,4,4,4
"488",4100,-315.010526315789,3988,192.789473684211,78.8315789473684,3639,-185.894736842105,3958,4259,53.1894736842105,-131.936842105263,4114,3879,-136.042105263158,17,0,1555,1771,0,4,4,4,4,4,4,4,4,4,4,4,4,4,4,4,4
"489",4102,-313.473684210526,3992,186.126315789474,88.5789473684211,3639,-187.947368421053,3956,4259,50.6315789473684,-133.473684210526,4113,3878,-141.684210526316,18,0,1555,1775,0,4,4,4,4,4,4,4,4,4,4,4,4,4,4,4,4
"490",4104,-310.915789473684,3999,193.305263157895,94.7263157894737,3641,-185.378947368421,3954,4260,48.0631578947368,-130.4,4111,3879,-144.242105263158,19,0,1559,1767,0,4,4,4,4,4,4,4,4,4,4,4,4,4,4,4,4
"491",4108,-311.421052631579,4004,204.073684210526,94.2210526315789,3637,-180.768421052632,3956,4265,49.6,-125.273684210526,4111,3883,-142.705263157895,20,0,1555,1775,0,4,4,4,4,4,4,4,4,4,4,4,4,4,4,4,4
"492",4105,-312.452631578947,4003,204.073684210526,92.1684210526316,3634,-185.894736842105,3955,4264,51.6526315789474,-127.831578947368,4113,3881,-141.684210526316,21,0,1555,1775,0,4,4,4,4,4,4,4,4,4,4,4,4,4,4,4,4
"493",4103,-309.884210526316,4003,205.610526315789,93.1894736842105,3638,-188.452631578947,3954,4260,52.1684210526316,-130.4,4117,3879,-142.189473684211,22,0,1559,1771,0,4,4,4,4,4,4,4,4,4,4,4,4,4,4,4,4
"494",4105,-311.421052631579,4006,209.2,94.2210526315789,3637,-184.357894736842,3955,4262,50.6315789473684,-124.757894736842,4118,3882,-143.221052631579,23,0,1555,1775,0,4,4,4,4,4,4,4,4,4,4,4,4,4,4,4,4
"495",4108,-317.578947368421,4008,208.168421052632,96.778947368421,3629,-179.736842105263,3956,4264,48.5789473684211,-121.168421052632,4115,3885,-141.168421052632,24,0,1555,1775,0,4,4,4,4,4,4,4,4,4,4,4,4,4,4,4,4
"496",4108,-321.168421052632,4009,202.021052631579,97.8105263157895,3618,-179.736842105263,3952,4263,47.5473684210526,-124.757894736842,4109,3883,-144.242105263158,25,0,1559,1775,0,4,4,4,4,4,4,4,4,4,4,4,4,4,4,4,4
"497",4105,-325.778947368421,4008,190.736842105263,95.2421052631579,3606,-184.863157894737,3942,4261,43.4526315789474,-126.294736842105,4100,3882,-152.957894736842,26,0,1555,1771,0,4,4,4,4,4,4,4,4,4,4,4,4,4,4,4,4
"498",4106,-323.221052631579,4010,193.810526315789,95.2421052631579,3604,-188.968421052632,3942,4262,43.9578947368421,-126.294736842105,4101,3883,-148.863157894737,27,0,1555,1779,0,4,4,4,4,4,4,4,4,4,4,4,4,4,4,4,4
"499",4107,-317.578947368421,4007,205.610526315789,99.8631578947368,3618,-188.452631578947,3948,4263,48.0631578947368,-125.778947368421,4110,3884,-138.094736842105,28,0,1559,1771,0,4,4,4,4,4,4,4,4,4,4,4,4,4,4,4,4
"500",4108,-320.136842105263,4009,207.147368421053,100.368421052632,3620,-186.915789473684,3946,4263,48.5789473684211,-126.294736842105,4110,3882,-144.757894736842,29,0,1555,1775,0,4,4,4,4,4,4,4,4,4,4,4,4,4,4,4,4
"501",4106,-326.810526315789,4011,202.536842105263,95.7578947368421,3607,-187.947368421053,3941,4259,41.4,-130.915789473684,4101,3880,-153.473684210526,30,0,1559,1775,0,4,4,4,4,4,4,4,4,4,4,4,4,4,4,4,4
"502",4103,-323.726315789474,4009,204.073684210526,94.2210526315789,3604,-192.557894736842,3944,4255,35.2421052631579,-134.505263157895,4098,3878,-148.863157894737,31,0,1555,1771,0,4,4,4,4,4,4,4,4,4,4,4,4,4,4,4,4
"503",4097,-328.347368421053,4010,196.894736842105,95.7578947368421,3604,-198.2,3939,4258,32.1684210526316,-132.452631578947,4095,3878,-152.957894736842,32,0,1559,1775,0,4,4,4,4,4,4,4,4,4,4,4,4,4,4,4,4
"504",4098,-337.063157894737,4015,185.094736842105,95.7578947368421,3593,-197.168421052632,3928,4263,29.0842105263158,-130.915789473684,4089,3879,-166.810526315789,33,0,1555,1775,0,4,4,4,4,4,4,4,4,4,4,4,4,4,4,4,4
"505",4099,-333.989473684211,4016,185.610526315789,95.7578947368421,3587,-194.094736842105,3926,4261,28.0631578947368,-133.473684210526,4090,3880,-166.810526315789,34,0,1559,1771,0,4,4,4,4,4,4,4,4,4,4,4,4,4,4,4,4
"506",4094,-330.915789473684,4012,187.663157894737,95.7578947368421,3595,-194.610526315789,3933,4259,27.5473684210526,-132.452631578947,4091,3878,-163.221052631579,35,0,1555,1771,0,4,4,4,4,4,4,4,4,4,4,4,4,4,4,4,4
"507",4089,-332.452631578947,4012,186.126315789474,94.2210526315789,3601,-196.663157894737,3938,4262,30.1157894736842,-130.4,4092,3878,-165.273684210526,36,0,1559,1775,0,4,4,4,4,4,4,4,4,4,4,4,4,4,4,4,4
"508",4090,-332.957894736842,4009,184.073684210526,93.7052631578947,3594,-200.252631578947,3933,4261,29.0842105263158,-134.505263157895,4092,3879,-166.294736842105,37,0,1559,1767,0,4,4,4,4,4,4,4,4,4,4,4,4,4,4,4,4
"509",4089,-336.547368421053,4009,184.578947368421,92.6842105263158,3587,-201.789473684211,3925,4259,22.4210526315789,-137.578947368421,4090,3877,-169.884210526316,38,0,1555,1771,0,4,4,4,4,4,4,4,4,4,4,4,4,4,4,4,4
"510",4091,-335.010526315789,4015,185.094736842105,94.7263157894737,3593,-196.147368421053,3930,4261,22.9368421052632,-133.473684210526,4087,3877,-166.810526315789,39,0,1559,1771,0,4,4,4,4,4,4,4,4,4,4,4,4,4,4,4,4
"511",4096,-322.18947368421,4021,189.715789473684,97.8105263157895,3604,-195.126315789474,3942,4264,32.1684210526316,-127.315789473684,4095,3879,-156.042105263158,40,0,1559,1771,0,4,4,4,4,4,4,4,4,4,4,4,4,4,4,4,4
"512",4095,-319.631578947368,4020,193.810526315789,97.2947368421053,3607,-199.221052631579,3946,4264,38.3157894736842,-127.315789473684,4107,3880,-156.547368421053,41,0,1559,1771,0,4,4,4,4,4,4,4,4,4,4,4,4,4,4,4,4
"513",4091,-324.757894736842,4019,190.736842105263,96.2736842105263,3606,-199.736842105263,3943,4263,39.8631578947368,-127.831578947368,4107,3878,-163.221052631579,42,0,1555,1775,0,4,4,4,4,4,4,4,4,4,4,4,4,4,4,4,4
"514",4091,-323.221052631579,4020,186.126315789474,97.2947368421053,3605,-198.2,3942,4262,36.2736842105263,-127.315789473684,4104,3877,-164.757894736842,43,0,1559,1771,0,4,4,4,4,4,4,4,4,4,4,4,4,4,4,4,4
"515",4091,-321.168421052632,4017,187.147368421053,96.2736842105263,3604,-199.736842105263,3942,4261,34.2210526315789,-131.936842105263,4107,3878,-163.726315789474,44,0,1555,1771,0,4,4,4,4,4,4,4,4,4,4,4,4,4,4,4,4
"516",4089,-323.221052631579,4018,187.147368421053,93.1894736842105,3607,-203.842105263158,3942,4259,39.8631578947368,-136.547368421053,4107,3877,-158.6,45,0,1559,1771,0,4,4,4,4,4,4,4,4,4,4,4,4,4,4,4,4
"517",4086,-317.578947368421,4020,190.221052631579,93.1894736842105,3618,-203.842105263158,3950,4262,50.1157894736842,-134.505263157895,4111,3877,-149.368421052632,46,0,1559,1771,0,4,4,4,4,4,4,4,4,4,4,4,4,4,4,4,4
"518",4088,-301.168421052632,4024,206.126315789474,90.6315789473684,3633,-198.2,3966,4265,59.3473684210526,-132.452631578947,4129,3878,-139.631578947368,47,0,1555,1771,0,4,4,4,4,4,4,4,4,4,4,4,4,4,4,4,4
"519",4089,-291.936842105263,4023,212.273684210526,80.3684210526316,3641,-196.663157894737,3977,4263,67.0421052631579,-134.505263157895,4143,3878,-128.863157894737,48,0,1555,1771,0,4,4,4,4,4,4,4,4,4,4,4,4,4,4,4,4
"520",4090,-292.957894736842,4025,208.684210526316,74.7263157894737,3640,-201.789473684211,3977,4262,69.0842105263158,-134.505263157895,4141,3878,-122.705263157895,49,0,1555,1775,0,4,4,4,4,4,4,4,4,4,4,4,4,4,4,4,4
"521",4092,-301.168421052632,4027,203.557894736842,82.9368421052632,3634,-201.789473684211,3970,4264,61.9052631578947,-133.473684210526,4131,3878,-128.347368421053,50,0,1559,1771,0,4,4,4,4,4,4,4,4,4,4,4,4,4,4,4,4
"522",4092,-329.368421052632,4027,177.915789473684,86.5263157894737,3613,-199.736842105263,3943,4265,33.7052631578947,-132.957894736842,4103,3878,-149.368421052632,51,0,1559,1771,0,4,4,4,4,4,4,4,4,4,4,4,4,4,4,4,4
"523",4086,312.273684210526,4026,128.684210526316,78.8315789473684,3575,-206.4,3894,4264,-14.5052631578947,-133.989473684211,4050,3878,-189.368421052632,52,0,1555,1771,0,4,4,4,4,4,4,4,4,4,4,4,4,4,4,4,4
"524",4080,284.073684210526,4022,101.505263157895,75.2421052631579,3546,-212.042105263158,3861,4264,-43.7263157894737,-135.526315789474,4013,3878,-218.6,53,0,1559,1767,0,4,4,4,4,4,4,4,4,4,4,4,4,4,4,4,4
"525",4078,283.557894736842,4021,103.042105263158,76.7789473684211,3538,-210.505263157895,3858,4264,-44.7578947368421,-136.042105263158,4013,3878,-219.115789473684,54,0,1555,1771,0,4,4,4,4,4,4,4,4,4,4,4,4,4,4,4,4
"526",4076,287.663157894737,4022,105.610526315789,76.7789473684211,3544,-206.915789473684,3863,4265,-43.7263157894737,-135.526315789474,4017,3878,-211.936842105263,55,0,1559,1771,0,4,4,4,4,4,4,4,4,4,4,4,4,4,4,4,4
"527",4078,291.252631578947,4028,104.073684210526,77.2947368421053,3552,-205.378947368421,3861,4266,-42.1894736842105,-133.989473684211,4017,3877,-214.505263157895,56,0,1559,1767,0,4,4,4,4,4,4,4,4,4,4,4,4,4,4,4,4
"528",4081,295.863157894737,4030,110.736842105263,79.8631578947368,3556,-203.842105263158,3865,4267,-35.0105263157895,-132.957894736842,4025,3877,-213.473684210526,57,0,1555,1775,0,4,4,4,4,4,4,4,4,4,4,4,4,4,4,4,4
"529",4080,299.968421052632,4032,118.431578947368,79.3473684210526,3558,-205.378947368421,3867,4266,-28.8631578947368,-133.989473684211,4032,3879,-204.757894736842,58,0,1559,1771,0,4,4,4,4,4,4,4,4,4,4,4,4,4,4,4,4
"530",4074,299.452631578947,4026,115.347368421053,77.8105263157895,3557,-210.505263157895,3864,4264,-30.9157894736842,-136.042105263158,4027,3877,-197.063157894737,59,0,1555,1771,0,4,4,4,4,4,4,4,4,4,4,4,4,4,4,4,4
"531",4071,299.452631578947,4024,114.842105263158,77.2947368421053,3555,-214.094736842105,3866,4265,-29.8842105263158,-137.063157894737,4028,3875,-199.115789473684,60,0,1559,1771,0,4,4,4,4,4,4,4,4,4,4,4,4,4,4,4,4
"532",4072,305.094736842105,4029,122.536842105263,79.8631578947368,3565,-211.536842105263,3875,4266,-21.6842105263158,-134.505263157895,4039,3877,-199.115789473684,61,0,1555,1775,0,4,4,4,4,4,4,4,4,4,4,4,4,4,4,4,4
"533",4076,316.894736842105,4032,130.736842105263,80.8842105263158,3579,-205.894736842105,3882,4267,-11.4210526315789,-132.452631578947,4049,3880,-189.884210526316,62,0,1559,1771,0,4,4,4,4,4,4,4,4,4,4,4,4,4,4,4,4
"534",4074,312.273684210526,4034,122.536842105263,81.9052631578947,3572,-206.4,3874,4267,-17.0631578947368,-133.473684210526,4041,3881,-197.063157894737,63,0,1555,1775,0,4,4,4,4,4,4,4,4,4,4,4,4,4,4,4,4
"535",4067,301.505263157895,4032,114.326315789474,77.2947368421053,3558,-212.557894736842,3864,4266,-31.4210526315789,-135.010526315789,4027,3873,-214.505263157895,64,0,1559,1775,384,4,4,4,4,4,4,4,4,4,4,4,4,4,4,4,4
"536",4065,316.894736842105,4032,130.736842105263,47.0421052631579,3576,-213.578947368421,3878,4264,-16.5473684210526,-133.473684210526,4044,3868,-197.578947368421,65,0,1555,1771,481,4,4,4,4,4,4,4,4,4,4,4,4,4,4,4,4
"537",4068,339.452631578947,4031,154.842105263158,3.95789473684211,3605,-208.452631578947,3905,4264,13.1894736842105,-132.452631578947,4074,3874,-160.652631578947,66,0,1555,1779,437,4,4,4,4,4,4,4,4,4,4,4,4,4,4,4,4
"538",4066,343.557894736842,4033,161.505263157895,-18.6,3610,-208.452631578947,3912,4264,21.9052631578947,-135.010526315789,4080,3877,-151.936842105263,67,0,1559,1771,515,4,4,4,4,4,4,4,4,4,4,4,4,4,4,4,4
"539",4064,-341.684210526316,4028,166.631578947368,-13.4736842105263,3613,-212.557894736842,3913,4263,24.4736842105263,-132.452631578947,4085,3866,-152.452631578947,68,0,1555,1775,510,4,4,4,4,4,4,4,4,4,4,4,4,4,4,4,4
"540",4069,328.684210526316,4028,149.715789473684,-6.81052631578947,3601,-213.578947368421,3892,4263,8.06315789473684,-128.347368421053,4067,3863,-165.778947368421,69,0,1555,1771,502,4,4,4,4,4,4,4,4,4,4,4,4,4,4,4,4
"541",4069,253.305263157895,4032,72.7894736842105,-9.36842105263158,3543,-212.557894736842,3820,4265,-66.8105263157895,-130.4,3987,3875,-228.863157894737,70,0,1555,1775,473,4,4,4,4,4,4,4,4,4,4,4,4,4,4,4,4
"542",4068,199.452631578947,4034,11.2526315789474,-8.86315789473684,3495,-212.557894736842,3761,4265,-128.863157894737,-131.421052631579,3916,3878,-280.136842105263,71,0,1559,1771,486,4,4,4,4,4,4,4,4,4,4,4,4,4,4,4,4
"543",4073,208.684210526316,4034,16.8947368421053,-3.72631578947368,3503,-214.094736842105,3761,4264,-121.168421052632,-131.421052631579,3919,3874,-270.4,72,0,1551,1775,522,4,4,4,4,4,4,4,4,4,4,4,4,4,4,4,4
"544",4077,220.989473684211,4034,35.8631578947368,0.884210526315789,3515,-213.578947368421,3779,4265,-103.726315789474,-132.452631578947,3939,3875,-257.063157894737,73,0,1559,1775,483,4,4,4,4,4,4,4,4,4,4,4,4,4,4,4,4
"545",4075,212.273684210526,4036,32.7894736842105,0.368421052631579,3507,-217.168421052632,3779,4265,-110.4,-129.884210526316,3937,3879,-266.810526315789,74,0,1559,1771,537,4,4,4,4,4,4,4,4,4,4,4,4,4,4,4,4
"546",4070,210.736842105263,4033,24.0736842105263,-2.70526315789474,3504,-224.863157894737,3770,4264,-113.989473684211,-129.368421052632,3934,3876,-269.368421052632,75,0,1555,1775,452,4,4,4,4,4,4,4,4,4,4,4,4,4,4,4,4
"547",4066,216.378947368421,4036,24.0736842105263,-3.72631578947368,3506,-226.915789473684,3770,4263,-109.884210526316,-134.505263157895,3934,3873,-266.294736842105,76,0,1559,1771,521,4,4,4,4,4,4,4,4,4,4,4,4,4,4,4,4
"548",4064,223.557894736842,4037,33.8105263157895,-0.136842105263158,3510,-224.357894736842,3784,4265,-105.778947368421,-131.936842105263,3941,3876,-263.726315789474,77,0,1555,1771,475,4,4,4,4,4,4,4,4,4,4,4,4,4,4,4,4
"549",4070,222.021052631579,4038,34.3263157894737,0.884210526315789,3509,-225.894736842105,3781,4267,-106.810526315789,-124.242105263158,3939,3876,-266.810526315789,78,0,1555,1771,537,4,4,4,4,4,4,4,4,4,4,4,4,4,4,4,4
"550",4075,227.147368421053,4037,35.8631578947368,4.47368421052632,3515,-226.915789473684,3780,4266,-101.168421052632,-125.778947368421,3945,3876,-261.684210526316,79,0,1555,1775,452,4,4,4,4,4,4,4,4,4,4,4,4,4,4,4,4
"551",4076,283.557894736842,4042,93.8105263157895,10.1157894736842,3562,-225.378947368421,3841,4265,-45.7789473684211,-127.315789473684,4009,3879,-215.526315789474,80,0,1559,1771,521,4,4,4,4,4,4,4,4,4,4,4,4,4,4,4,4
"552",4076,-338.6,4042,166.126315789474,10.1157894736842,3621,-224.863157894737,3916,4265,24.9894736842105,-123.221052631579,4086,3880,-157.063157894737,81,0,1551,1775,475,4,4,4,4,4,4,4,4,4,4,4,4,4,4,4,4
"553",4076,-310.915789473684,4042,190.221052631579,10.6315789473684,3645,-222.810526315789,3942,4264,50.6315789473684,-119.631578947368,4117,3878,-133.473684210526,82,0,1559,1775,537,4,4,4,4,4,4,4,4,4,4,4,4,4,4,4,4
"554",4078,-309.368421052632,4044,187.147368421053,13.7052631578947,3644,-222.810526315789,3943,4261,53.7052631578947,-120.652631578947,4121,3879,-130.915789473684,83,0,1559,1771,452,4,4,4,4,4,4,4,4,4,4,4,4,4,4,4,4
"555",4076,-308.863157894737,4043,189.715789473684,12.6842105263158,3640,-226.4,3948,4262,63.4526315789474,-124.242105263158,4126,3879,-123.726315789474,84,0,1555,1775,521,4,4,4,4,4,4,4,4,4,4,4,4,4,4,4,4
"556",4076,-311.936842105263,4042,187.663157894737,12.6842105263158,3634,-227.947368421053,3945,4264,62.4210526315789,-123.221052631579,4121,3878,-128.863157894737,85,0,1559,1775,475,4,4,4,4,4,4,4,4,4,4,4,4,4,4,4,4
"557",4077,-306.294736842105,4042,186.126315789474,15.2421052631579,3644,-225.378947368421,3945,4264,58.3157894736842,-119.115789473684,4119,3879,-134.505263157895,86,0,1559,1775,537,4,4,4,4,4,4,4,4,4,4,4,4,4,4,4,4
"558",4079,-290.4,4044,198.431578947368,13.1894736842105,3670,-227.431578947368,3964,4264,74.2210526315789,-119.115789473684,4141,3881,-114.505263157895,87,0,1555,1775,452,4,4,4,4,4,4,4,4,4,4,4,4,4,4,4,4
"559",4076,-286.294736842105,4041,205.094736842105,12.1684210526316,3677,-230.505263157895,3974,4264,85.4947368421053,-119.115789473684,4154,3879,-97.5789473684211,88,0,1559,1775,521,4,4,4,4,4,4,4,4,4,4,4,4,4,4,4,4
"560",4074,-290.4,4043,201.505263157895,13.1894736842105,3667,-231.536842105263,3967,4264,79.3473684210526,-113.989473684211,4145,3878,-107.315789473684,89,0,1555,1775,475,4,4,4,4,4,4,4,4,4,4,4,4,4,4,4,4
"561",4075,-291.936842105263,4046,199.452631578947,12.6842105263158,3670,-232.042105263158,3963,4264,76.2736842105263,-109.884210526316,4140,3879,-115.526315789474,90,0,1559,1775,537,4,4,4,4,4,4,4,4,4,4,4,4,4,4,4,4
"562",4080,-281.684210526316,4047,209.715789473684,13.1894736842105,3682,-231.021052631579,3973,4265,88.5789473684211,-110.915789473684,4153,3880,-105.778947368421,91,0,1555,1775,452,4,4,4,4,4,4,4,4,4,4,4,4,4,4,4,4
"563",4086,-278.6,4048,210.736842105263,15.7578947368421,3680,-229.989473684211,3979,4266,96.2736842105263,-110.915789473684,4158,3881,-105.778947368421,92,0,1559,1771,521,4,4,4,4,4,4,4,4,4,4,4,4,4,4,4,4
"564",4088,-283.726315789474,4049,207.663157894737,19.8631578947368,3676,-229.484210526316,3975,4267,90.6315789473684,-110.4,4152,3881,-112.957894736842,93,0,1555,1771,475,4,4,4,4,4,4,4,4,4,4,4,4,4,4,4,4
"565",4089,-283.221052631579,4047,211.757894736842,19.3473684210526,3675,-229.989473684211,3974,4265,89.6,-109.884210526316,4151,3879,-110.4,94,0,1555,1779,537,4,4,4,4,4,4,4,4,4,4,4,4,4,4,4,4
"566",4091,-279.631578947368,4046,213.305263157895,18.8315789473684,3673,-228.452631578947,3977,4267,92.1684210526316,-110.915789473684,4154,3879,-108.347368421053,95,0,1559,1771,452,4,4,4,4,4,4,4,4,4,4,4,4,4,4,4,4
"567",4090,-283.221052631579,4052,208.684210526316,17.8105263157895,3669,-230.505263157895,3975,4268,84.4736842105263,-115.010526315789,4149,3881,-117.578947368421,96,0,1555,1775,521,4,4,4,4,4,4,4,4,4,4,4,4,4,4,4,4
"568",4088,-291.421052631579,4051,207.663157894737,17.2947368421053,3666,-233.578947368421,3970,4265,77.2947368421053,-116.547368421053,4142,3881,-124.242105263158,97,0,1559,1775,475,4,4,4,4,4,4,4,4,4,4,4,4,4,4,4,4
"569",4090,-284.757894736842,4050,218.431578947368,21.9052631578947,3672,-232.042105263158,3977,4267,87.0421052631579,-110.915789473684,4150,3882,-113.989473684211,98,0,1559,1775,537,4,4,4,4,4,4,4,4,4,4,4,4,4,4,4,4
