"","AF3","AF4","F3","F4","F7","F8","FC5","FC6","O1","O2","P7","P8","T7","T8","COUNTER","INTERPOLATED","GYROX","GYROY","RAW_CQ","CQ_CMS","CQ_F7","CQ_T7","CQ_O2","CQ_FC6","CQ_AF4","CQ_F3","CQ_P7","CQ_P8","CQ_F4","CQ_AF3","CQ_FC5","CQ_O1","CQ_T8","CQ_F8","CQ_DRL"
"1",3835,-242.189473684211,4092,224.073684210526,-101.168421052632,3703,-302.810526315789,3827,3967,14.7263157894737,-225.778947368421,4078,3577,-327.831578947368,53,0,1555,1775,0,4,4,4,4,4,4,4,4,4,4,4,4,4,4,4,4
"2",3844,-231.936842105263,4094,233.305263157895,-93.4736842105263,3714,-294.094736842105,3841,3971,17.8105263157895,-227.831578947368,4089,3586,-314.505263157895,54,0,1559,1775,0,4,4,4,4,4,4,4,4,4,4,4,4,4,4,4,4
"3",3851,-225.778947368421,4099,236.894736842105,-85.2736842105263,3722,-287.431578947368,3849,3969,26.0105263157895,-223.221052631579,4094,3582,-307.315789473684,55,0,1559,1771,0,4,4,4,4,4,4,4,4,4,4,4,4,4,4,4,4
"4",3849,-228.347368421053,4100,240.989473684211,-83.2210526315789,3723,-289.989473684211,3845,3970,28.5789473684211,-225.778947368421,4091,3575,-308.347368421053,56,0,1559,1775,0,4,4,4,4,4,4,4,4,4,4,4,4,4,4,4,4
"5",3850,-227.831578947368,4102,247.147368421053,-79.6315789473684,3724,-289.989473684211,3846,3977,28.5789473684211,-227.831578947368,4093,3586,-311.421052631579,57,0,1559,1771,0,4,4,4,4,4,4,4,4,4,4,4,4,4,4,4,4
"6",3854,-226.810526315789,4099,244.073684210526,-77.0631578947368,3724,-286.915789473684,3851,3976,26.0105263157895,-216.042105263158,4097,3592,-308.347368421053,58,0,1559,1775,0,4,4,4,4,4,4,4,4,4,4,4,4,4,4,4,4
"7",3852,-230.4,4092,237.915789473684,-79.6315789473684,3719,-288.968421052632,3849,3964,14.2210526315789,-210.4,4089,3585,-307.831578947368,59,0,1559,1771,0,4,4,4,4,4,4,4,4,4,4,4,4,4,4,4,4
"8",3856,-229.884210526316,4090,243.557894736842,-76.0421052631579,3721,-288.452631578947,3852,3959,13.1894736842105,-214.505263157895,4089,3587,-310.915789473684,60,0,1559,1775,0,4,4,4,4,4,4,4,4,4,4,4,4,4,4,4,4
"9",3862,-224.242105263158,4093,249.2,-70.4,3733,-281.789473684211,3871,3969,26.5263157894737,-211.936842105263,4104,3591,-300.136842105263,61,0,1563,1771,0,4,4,4,4,4,4,4,4,4,4,4,4,4,4,4,4
"10",3863,-223.221052631579,4091,245.610526315789,-72.4526315789474,3738,-278.2,3876,3975,33.1894736842105,-205.273684210526,4115,3589,-287.315789473684,62,0,1559,1771,0,4,4,4,4,4,4,4,4,4,4,4,4,4,4,4,4
"11",3863,-226.294736842105,4088,243.557894736842,-73.4736842105263,3731,-277.684210526316,3858,3972,31.1368421052632,-208.347368421053,4109,3587,-293.989473684211,63,0,1563,1775,0,4,4,4,4,4,4,4,4,4,4,4,4,4,4,4,4
"12",3864,-229.884210526316,4090,240.484210526316,-70.9157894736842,3719,-278.715789473684,3839,3971,26.0105263157895,-215.010526315789,4095,3586,-313.989473684211,64,0,1559,1771,475,4,4,4,4,4,4,4,4,4,4,4,4,4,4,4,4
"13",3863,-231.936842105263,4091,234.842105263158,-73.4736842105263,3713,-281.789473684211,3830,3974,17.8105263157895,-211.936842105263,4089,3587,-321.684210526316,65,0,1559,1775,441,4,4,4,4,4,4,4,4,4,4,4,4,4,4,4,4
"14",3863,-230.4,4090,239.968421052632,-73.4736842105263,3715,-281.273684210526,3832,3972,16.2736842105263,-213.473684210526,4092,3585,-311.421052631579,66,0,1559,1775,494,4,4,4,4,4,4,4,4,4,4,4,4,4,4,4,4
"15",3865,-227.315789473684,4091,243.557894736842,-65.7789473684211,3723,-275.631578947368,3842,3970,20.8842105263158,-224.757894736842,4100,3584,-303.726315789474,67,0,1559,1775,503,4,4,4,4,4,4,4,4,4,4,4,4,4,4,4,4
"16",3871,-226.810526315789,4094,233.810526315789,-61.1684210526316,3724,-275.631578947368,3845,3970,18.8315789473684,-225.273684210526,4099,3586,-306.294736842105,68,0,1559,1775,496,4,4,4,4,4,4,4,4,4,4,4,4,4,4,4,4
"17",3876,-226.810526315789,4095,233.810526315789,-62.1894736842105,3721,-277.168421052632,3843,3972,12.1684210526316,-214.505263157895,4091,3591,-316.042105263158,69,0,1559,1779,506,4,4,4,4,4,4,4,4,4,4,4,4,4,4,4,4
"18",3877,-228.347368421053,4097,243.557894736842,-61.1684210526316,3722,-275.631578947368,3845,3970,9.6,-211.421052631579,4086,3591,-321.168421052632,70,0,1563,1771,495,4,4,4,4,4,4,4,4,4,4,4,4,4,4,4,4
"19",3876,-227.831578947368,4102,246.126315789474,-56.5473684210526,3721,-273.578947368421,3844,3971,12.1684210526316,-207.315789473684,4091,3594,-315.526315789474,71,0,1555,1775,412,4,4,4,4,4,4,4,4,4,4,4,4,4,4,4,4
"20",3881,-218.094736842105,4108,249.2,-51.4210526315789,3722,-266.915789473684,3846,3983,22.4210526315789,-197.578947368421,4105,3603,-303.726315789474,72,0,1559,1779,454,4,4,4,4,4,4,4,4,4,4,4,4,4,4,4,4
"21",3881,-209.368421052632,4114,257.915789473684,-48.8631578947368,3728,-259.736842105263,3856,3992,37.2947368421053,-195.010526315789,4115,3607,-293.989473684211,73,0,1559,1775,455,4,4,4,4,4,4,4,4,4,4,4,4,4,4,4,4
"22",3877,-210.915789473684,4112,257.915789473684,-48.3473684210526,3732,-259.736842105263,3864,3990,43.4526315789474,-196.042105263158,4115,3606,-292.452631578947,74,0,1559,1775,499,4,4,4,4,4,4,4,4,4,4,4,4,4,4,4,4
"23",3885,-212.957894736842,4111,256.378947368421,-46.8105263157895,3730,-262.305263157895,3862,3989,37.2947368421053,-194.505263157895,4115,3605,-293.473684210526,75,0,1555,1775,485,4,4,4,4,4,4,4,4,4,4,4,4,4,4,4,4
"24",3894,-209.884210526316,4118,260.484210526316,-46.2947368421053,3726,-261.789473684211,3861,3991,32.6842105263158,-198.6,4119,3604,-290.915789473684,76,0,1559,1775,456,4,4,4,4,4,4,4,4,4,4,4,4,4,4,4,4
"25",3895,-208.863157894737,4121,260.484210526316,-47.8315789473684,3726,-258.2,3864,3990,34.7263157894737,-199.115789473684,4116,3601,-290.4,77,0,1555,1775,474,4,4,4,4,4,4,4,4,4,4,4,4,4,4,4,4
"26",3891,-213.473684210526,4116,254.326315789474,-47.8315789473684,3719,-257.168421052632,3867,3988,29.0842105263158,-198.6,4103,3603,-303.221052631579,78,0,1559,1775,499,4,4,4,4,4,4,4,4,4,4,4,4,4,4,4,4
"27",3892,-218.094736842105,4113,247.147368421053,-47.8315789473684,3708,-258.2,3864,3988,15.7578947368421,-206.294736842105,4093,3608,-316.547368421053,79,0,1559,1775,485,4,4,4,4,4,4,4,4,4,4,4,4,4,4,4,4
"28",3892,-216.042105263158,4110,242.021052631579,-47.3157894736842,3708,-258.715789473684,3862,3988,15.7578947368421,-206.810526315789,4098,3607,-310.4,80,0,1559,1775,456,4,4,4,4,4,4,4,4,4,4,4,4,4,4,4,4
"29",3892,-212.957894736842,4109,244.073684210526,-43.7263157894737,3718,-257.684210526316,3871,3989,29.0842105263158,-197.578947368421,4108,3603,-299.115789473684,81,0,1555,1775,474,4,4,4,4,4,4,4,4,4,4,4,4,4,4,4,4
"30",3898,-209.368421052632,4114,249.715789473684,-41.1684210526316,3724,-258.715789473684,3881,3993,31.6526315789474,-195.526315789474,4111,3607,-298.6,82,0,1563,1771,499,4,4,4,4,4,4,4,4,4,4,4,4,4,4,4,4
"31",3896,-211.936842105263,4111,244.073684210526,-44.2421052631579,3715,-266.915789473684,3872,3988,20.8842105263158,-207.315789473684,4104,3605,-307.315789473684,83,0,1555,1771,485,4,4,4,4,4,4,4,4,4,4,4,4,4,4,4,4
"32",3888,-222.705263157895,4103,230.221052631579,-50.9157894736842,3704,-277.684210526316,3859,3973,10.6315789473684,-221.684210526316,4089,3588,-318.6,84,0,1559,1775,456,4,4,4,4,4,4,4,4,4,4,4,4,4,4,4,4
"33",3889,-222.705263157895,4103,232.789473684211,-51.4210526315789,3708,-279.736842105263,3862,3972,11.6526315789474,-222.705263157895,4089,3584,-319.115789473684,85,0,1559,1767,474,4,4,4,4,4,4,4,4,4,4,4,4,4,4,4,4
"34",3896,-210.915789473684,4109,242.536842105263,-45.7789473684211,3717,-277.684210526316,3873,3988,19.8631578947368,-212.452631578947,4102,3598,-309.368421052632,86,0,1559,1775,499,4,4,4,4,4,4,4,4,4,4,4,4,4,4,4,4
"35",3896,-211.421052631579,4108,239.968421052632,-48.8631578947368,3717,-286.4,3879,3994,22.4210526315789,-208.347368421053,4105,3602,-305.778947368421,87,0,1559,1771,485,4,4,4,4,4,4,4,4,4,4,4,4,4,4,4,4
"36",3892,-219.631578947368,4104,232.789473684211,-59.1157894736842,3712,-294.610526315789,3878,3988,18.3157894736842,-213.989473684211,4097,3599,-309.368421052632,88,0,1559,1771,456,4,4,4,4,4,4,4,4,4,4,4,4,4,4,4,4
"37",3893,-219.631578947368,4104,231.252631578947,-58.0947368421053,3712,-292.557894736842,3870,3989,16.2736842105263,-213.989473684211,4097,3612,-309.368421052632,89,0,1559,1767,474,4,4,4,4,4,4,4,4,4,4,4,4,4,4,4,4
"38",3896,-216.547368421053,4108,234.842105263158,-46.8105263157895,3714,-288.452631578947,3866,3989,15.2421052631579,-212.452631578947,4096,3624,-307.315789473684,90,0,1559,1771,499,4,4,4,4,4,4,4,4,4,4,4,4,4,4,4,4
"39",3898,-213.473684210526,4111,237.915789473684,-43.7263157894737,3716,-287.947368421053,3879,3977,15.7578947368421,-220.136842105263,4095,3622,-308.863157894737,91,0,1563,1771,485,4,4,4,4,4,4,4,4,4,4,4,4,4,4,4,4
"40",3896,-211.936842105263,4109,234.842105263158,-46.8105263157895,3718,-289.484210526316,3882,3970,11.1368421052632,-229.368421052632,4094,3618,-308.863157894737,92,0,1555,1771,456,4,4,4,4,4,4,4,4,4,4,4,4,4,4,4,4
"41",3895,-216.042105263158,4106,232.273684210526,-48.8631578947368,3712,-292.042105263158,3845,3970,3.95789473684211,-228.347368421053,4091,3619,-313.473684210526,93,0,1559,1775,474,4,4,4,4,4,4,4,4,4,4,4,4,4,4,4,4
"42",3897,-216.547368421053,4107,234.326315789474,-48.8631578947368,3707,-292.557894736842,3806,3974,7.04210526315789,-216.042105263158,4091,3618,-317.578947368421,94,0,1559,1771,499,4,4,4,4,4,4,4,4,4,4,4,4,4,4,4,4
"43",3897,-213.989473684211,4109,231.252631578947,-42.1894736842105,3706,-289.989473684211,3805,3983,13.1894736842105,-210.915789473684,4091,3625,-315.010526315789,95,0,1555,1775,485,4,4,4,4,4,4,4,4,4,4,4,4,4,4,4,4
"44",3901,-215.526315789474,4115,229.715789473684,-33.4736842105263,3707,-290.505263157895,3812,3996,12.1684210526316,-212.957894736842,4090,3635,-310.915789473684,96,0,1555,1771,456,4,4,4,4,4,4,4,4,4,4,4,4,4,4,4,4
"45",3909,-213.473684210526,4119,241.505263157895,-31.4210526315789,3715,-288.968421052632,3815,4005,19.8631578947368,-206.294736842105,4101,3636,-303.221052631579,97,0,1559,1775,474,4,4,4,4,4,4,4,4,4,4,4,4,4,4,4,4
"46",3912,-203.726315789474,4122,251.757894736842,-28.3473684210526,3728,-280.768421052632,3827,4006,32.1684210526316,-198.6,4117,3635,-291.936842105263,98,0,1555,1771,499,4,4,4,4,4,4,4,4,4,4,4,4,4,4,4,4
"47",3910,-195.010526315789,4132,251.757894736842,-19.1157894736842,3733,-274.094736842105,3837,4008,34.2210526315789,-196.547368421053,4124,3636,-284.757894736842,99,0,1555,1775,485,4,4,4,4,4,4,4,4,4,4,4,4,4,4,4,4
"48",3911,-196.042105263158,4139,251.252631578947,-15.5263157894737,3730,-275.631578947368,3835,4012,33.1894736842105,-188.347368421053,4124,3642,-286.294736842105,100,0,1559,1771,456,4,4,4,4,4,4,4,4,4,4,4,4,4,4,4,4
"49",3910,-206.294736842105,4130,251.252631578947,-18.6,3726,-276.147368421053,3834,4015,33.7052631578947,-177.578947368421,4118,3651,-291.421052631579,101,0,1555,1767,474,4,4,4,4,4,4,4,4,4,4,4,4,4,4,4,4
"50",3907,-213.989473684211,4124,247.147368421053,-17.5789473684211,3721,-267.947368421053,3832,4013,31.1368421052632,-178.094736842105,4110,3654,-296.547368421053,102,0,1559,1771,499,4,4,4,4,4,4,4,4,4,4,4,4,4,4,4,4
"51",3909,-211.421052631579,4134,243.557894736842,-13.4736842105263,3715,-257.168421052632,3831,4012,30.1157894736842,-173.989473684211,4111,3652,-291.421052631579,103,0,1555,1767,485,4,4,4,4,4,4,4,4,4,4,4,4,4,4,4,4
"52",3911,-213.989473684211,4139,243.042105263158,-10.9157894736842,3711,-258.2,3833,4014,31.6526315789474,-163.726315789474,4113,3653,-285.273684210526,104,0,1555,1771,456,4,4,4,4,4,4,4,4,4,4,4,4,4,4,4,4
"53",3905,-227.831578947368,4134,240.484210526316,-12.9578947368421,3704,-270.505263157895,3830,4014,26.5263157894737,-164.757894736842,4105,3654,-300.652631578947,105,0,1555,1771,474,4,4,4,4,4,4,4,4,4,4,4,4,4,4,4,4
"54",3901,-232.452631578947,4134,240.484210526316,-17.0631578947368,3698,-276.663157894737,3828,4016,17.2947368421053,-167.831578947368,4098,3652,-308.347368421053,106,0,1559,1771,499,4,4,4,4,4,4,4,4,4,4,4,4,4,4,4,4
"55",3906,-229.884210526316,4139,247.663157894737,-15.0105263157895,3699,-270.505263157895,3831,4019,14.2210526315789,-163.726315789474,4104,3653,-293.989473684211,107,0,1555,1771,485,4,4,4,4,4,4,4,4,4,4,4,4,4,4,4,4
"56",3902,-237.063157894737,4139,248.168421052632,-15.0105263157895,3699,-275.631578947368,3830,4019,20.3684210526316,-166.294736842105,4106,3651,-288.347368421053,108,0,1559,1775,456,4,4,4,4,4,4,4,4,4,4,4,4,4,4,4,4
"57",3892,-245.778947368421,4134,244.073684210526,-17.5789473684211,3697,-289.484210526316,3828,4017,27.5473684210526,-172.452631578947,4104,3647,-296.042105263158,109,0,1563,1771,474,4,4,4,4,4,4,4,4,4,4,4,4,4,4,4,4
"58",3899,-242.705263157895,4135,248.684210526316,-10.9157894736842,3702,-287.431578947368,3835,4019,30.6315789473684,-171.936842105263,4112,3649,-293.989473684211,110,0,1555,1775,499,4,4,4,4,4,4,4,4,4,4,4,4,4,4,4,4
"59",3911,-231.936842105263,4138,258.936842105263,-1.68421052631579,3711,-279.221052631579,3845,4021,33.7052631578947,-168.347368421053,4120,3652,-283.221052631579,111,0,1559,1775,485,4,4,4,4,4,4,4,4,4,4,4,4,4,4,4,4
"60",3914,-229.884210526316,4141,264.073684210526,6.52631578947368,3713,-277.684210526316,3848,4023,33.1894736842105,-168.863157894737,4121,3652,-281.168421052632,112,0,1559,1775,456,4,4,4,4,4,4,4,4,4,4,4,4,4,4,4,4
"61",3913,-238.6,4141,261.505263157895,11.6526315789474,3707,-278.2,3843,4023,31.6526315789474,-168.347368421053,4119,3654,-286.294736842105,113,0,1559,1779,474,4,4,4,4,4,4,4,4,4,4,4,4,4,4,4,4
"62",3915,-245.273684210526,4139,257.915789473684,7.54736842105263,3705,-282.810526315789,3838,4023,28.5789473684211,-168.347368421053,4116,3651,-290.915789473684,114,0,1559,1775,499,4,4,4,4,4,4,4,4,4,4,4,4,4,4,4,4
"63",3913,-244.757894736842,4139,257.4,-0.136842105263158,3708,-289.989473684211,3835,4021,20.3684210526316,-175.526315789474,4114,3640,-289.884210526316,115,0,1559,1779,485,4,4,4,4,4,4,4,4,4,4,4,4,4,4,4,4
"64",3909,-245.778947368421,4136,257.915789473684,-1.16842105263158,3702,-288.968421052632,3837,4016,12.1684210526316,-180.136842105263,4116,3639,-290.4,116,0,1559,1775,456,4,4,4,4,4,4,4,4,4,4,4,4,4,4,4,4
"65",3907,-248.863157894737,4133,256.894736842105,-0.136842105263158,3697,-281.789473684211,3844,4014,16.7789473684211,-175.526315789474,4119,3648,-290.915789473684,117,0,1559,1775,474,4,4,4,4,4,4,4,4,4,4,4,4,4,4,4,4
"66",3910,-246.294736842105,4136,258.431578947368,4.98947368421053,3706,-278.2,3848,4018,29.0842105263158,-170.4,4132,3649,-279.631578947368,118,0,1559,1779,499,4,4,4,4,4,4,4,4,4,4,4,4,4,4,4,4
"67",3911,-243.726315789474,4135,259.452631578947,15.2421052631579,3711,-277.168421052632,3847,4024,30.1157894736842,-173.989473684211,4135,3649,-271.936842105263,119,0,1563,1775,485,4,4,4,4,4,4,4,4,4,4,4,4,4,4,4,4
"68",3909,-243.726315789474,4126,255.347368421053,14.7263157894737,3704,-279.736842105263,3846,4027,25.4947368421053,-178.6,4128,3654,-277.578947368421,120,0,1559,1775,456,4,4,4,4,4,4,4,4,4,4,4,4,4,4,4,4
"69",3910,-242.705263157895,4124,259.968421052632,12.1684210526316,3709,-279.221052631579,3857,4031,30.6315789473684,-175.526315789474,4131,3653,-277.063157894737,121,0,1563,1775,474,4,4,4,4,4,4,4,4,4,4,4,4,4,4,4,4
"70",3913,-241.168421052632,4127,265.610526315789,17.8105263157895,3717,-267.947368421053,3864,4034,31.1368421052632,-172.452631578947,4135,3650,-274.505263157895,122,0,1555,1771,499,4,4,4,4,4,4,4,4,4,4,4,4,4,4,4,4
"71",3914,-242.705263157895,4124,257.4,19.3473684210526,3707,-257.168421052632,3854,4032,19.3473684210526,-173.989473684211,4120,3653,-285.778947368421,123,0,1559,1779,485,4,4,4,4,4,4,4,4,4,4,4,4,4,4,4,4
"72",3911,-246.810526315789,4119,246.631578947368,13.1894736842105,3696,-257.684210526316,3846,4028,13.7052631578947,-175.010526315789,4110,3653,-297.063157894737,124,0,1563,1771,456,4,4,4,4,4,4,4,4,4,4,4,4,4,4,4,4
"73",3910,-245.778947368421,4121,247.663157894737,11.1368421052632,3703,-259.736842105263,3850,4029,14.2210526315789,-171.936842105263,4119,3651,-291.421052631579,125,0,1559,1775,474,4,4,4,4,4,4,4,4,4,4,4,4,4,4,4,4
"74",3918,-237.578947368421,4123,254.842105263158,21.4,3715,-255.631578947368,3858,4036,20.3684210526316,-171.936842105263,4129,3656,-281.684210526316,126,0,1559,1775,499,4,4,4,4,4,4,4,4,4,4,4,4,4,4,4,4
"75",3925,-229.884210526316,4123,257.4,31.1368421052632,3717,-256.663157894737,3863,4035,32.6842105263158,-176.547368421053,4138,3663,-268.863157894737,127,0,1559,1775,485,4,4,4,4,4,4,4,4,4,4,4,4,4,4,4,4
"76",3924,-227.831578947368,4124,257.4,31.1368421052632,3719,-256.663157894737,3864,4029,11.1368421052632,-179.115789473684,4140,3661,-263.726315789474,128,0,1559,1775,456,4,4,4,4,4,4,4,4,4,4,4,4,4,4,4,4
"77",3925,-227.315789473684,4124,260.989473684211,33.1894736842105,3722,-249.989473684211,3864,4027,-41.6842105263158,-179.115789473684,4129,3655,-271.936842105263,0,0,1555,1775,475,4,4,4,4,4,4,4,4,4,4,4,4,4,4,4,4
"78",3928,-225.778947368421,4123,261.505263157895,44.4736842105263,3719,-250.505263157895,3864,4024,-65.2736842105263,-179.115789473684,4122,3652,-277.578947368421,1,0,1563,1775,442,4,4,4,4,4,4,4,4,4,4,4,4,4,4,4,4
"79",3928,-226.810526315789,4121,254.326315789474,45.4947368421053,3714,-257.168421052632,3864,4023,-57.5789473684211,-183.221052631579,4119,3651,-281.684210526316,2,0,1555,1775,494,4,4,4,4,4,4,4,4,4,4,4,4,4,4,4,4
"80",3925,-230.4,4119,245.094736842105,33.7052631578947,3710,-259.221052631579,3858,4033,-57.5789473684211,-178.6,4114,3649,-291.936842105263,3,0,1563,1779,503,4,4,4,4,4,4,4,4,4,4,4,4,4,4,4,4
"81",3919,-232.452631578947,4115,238.431578947368,30.6315789473684,3707,-259.221052631579,3850,4046,-57.5789473684211,-168.347368421053,4112,3650,-291.936842105263,4,0,1559,1775,496,4,4,4,4,4,4,4,4,4,4,4,4,4,4,4,4
"82",3912,-229.884210526316,4113,237.4,35.2421052631579,3708,-259.221052631579,3852,4047,-47.3157894736842,-170.4,4121,3652,-281.684210526316,5,0,1559,1779,506,4,4,4,4,4,4,4,4,4,4,4,4,4,4,4,4
"83",3913,-228.347368421053,4110,241.505263157895,33.7052631578947,3709,-261.789473684211,3859,4039,-51.4210526315789,-181.168421052632,4118,3645,-287.315789473684,6,0,1559,1775,495,4,4,4,4,4,4,4,4,4,4,4,4,4,4,4,4
"84",3914,-227.831578947368,4108,243.557894736842,34.2210526315789,3708,-265.378947368421,3858,4036,-63.7263157894737,-181.168421052632,4102,3638,-299.631578947368,7,0,1563,1775,413,4,4,4,4,4,4,4,4,4,4,4,4,4,4,4,4
"85",3914,-219.631578947368,4109,249.2,43.4526315789474,3715,-261.789473684211,3859,4036,-58.0947368421053,-178.094736842105,4108,3642,-289.884210526316,8,0,1559,1771,455,4,4,4,4,4,4,4,4,4,4,4,4,4,4,4,4
"86",3914,-208.347368421053,4109,253.305263157895,48.0631578947368,3724,-262.305263157895,3868,4027,-51.9368421052632,-187.315789473684,4123,3645,-273.989473684211,9,0,1559,1775,455,4,4,4,4,4,4,4,4,4,4,4,4,4,4,4,4
"87",3912,-213.989473684211,4105,243.042105263158,40.8842105263158,3716,-273.073684210526,3865,4018,-62.7052631578947,-195.010526315789,4111,3643,-282.705263157895,10,0,1563,1775,499,4,4,4,4,4,4,4,4,4,4,4,4,4,4,4,4
"88",3908,-226.294736842105,4099,234.842105263158,37.2947368421053,3709,-277.168421052632,3858,4021,-66.2947368421053,-191.421052631579,4103,3639,-294.505263157895,11,0,1559,1775,485,4,4,4,4,4,4,4,4,4,4,4,4,4,4,4,4
"89",3909,-220.136842105263,4093,240.989473684211,42.9368421052632,3718,-273.073684210526,3864,4028,-51.4210526315789,-185.778947368421,4119,3639,-281.168421052632,12,0,1559,1775,456,4,4,4,4,4,4,4,4,4,4,4,4,4,4,4,4
"90",3910,-212.452631578947,4091,244.073684210526,46.5263157894737,3724,-275.126315789474,3865,4028,-45.7789473684211,-182.705263157895,4128,3643,-271.421052631579,13,0,1559,1771,474,4,4,4,4,4,4,4,4,4,4,4,4,4,4,4,4
"91",3910,-211.936842105263,4092,244.578947368421,44.9894736842105,3725,-275.126315789474,3864,4026,-48.8631578947368,-183.726315789474,4126,3643,-276.042105263158,14,0,1559,1779,499,4,4,4,4,4,4,4,4,4,4,4,4,4,4,4,4
"92",3914,-202.705263157895,4092,250.736842105263,46.0105263157895,3734,-271.021052631579,3870,4029,-45.2736842105263,-182.705263157895,4131,3643,-272.452631578947,15,0,1559,1775,485,4,4,4,4,4,4,4,4,4,4,4,4,4,4,4,4
"93",3915,-199.115789473684,4091,249.2,48.5789473684211,3735,-272.557894736842,3870,4035,-43.2210526315789,-181.684210526316,4130,3652,-271.421052631579,16,0,1559,1775,0,4,4,4,4,4,4,4,4,4,4,4,4,4,4,4,4
"94",3913,-208.863157894737,4090,241.505263157895,48.5789473684211,3724,-276.663157894737,3862,4038,-46.8105263157895,-189.368421052632,4118,3652,-280.136842105263,17,0,1559,1775,0,4,4,4,4,4,4,4,4,4,4,4,4,4,4,4,4
"95",3912,-209.368421052632,4088,240.484210526316,47.0421052631579,3721,-279.736842105263,3860,4035,-48.8631578947368,-199.115789473684,4119,3644,-279.115789473684,18,0,1559,1779,0,4,4,4,4,4,4,4,4,4,4,4,4,4,4,4,4
"96",3915,-201.168421052632,4087,242.536842105263,48.5789473684211,3730,-277.168421052632,3865,4035,-43.7263157894737,-191.936842105263,4126,3648,-272.452631578947,19,0,1559,1775,0,4,4,4,4,4,4,4,4,4,4,4,4,4,4,4,4
"97",3916,-198.094736842105,4086,246.631578947368,53.1894736842105,3735,-274.610526315789,3865,4037,-36.0421052631579,-177.578947368421,4127,3656,-270.4,20,0,1555,1775,0,4,4,4,4,4,4,4,4,4,4,4,4,4,4,4,4
"98",3914,-198.6,4081,250.221052631579,52.6842105263158,3734,-280.768421052632,3864,4030,-37.5789473684211,-180.652631578947,4126,3648,-272.452631578947,21,0,1559,1779,0,4,4,4,4,4,4,4,4,4,4,4,4,4,4,4,4
"99",3910,-205.273684210526,4072,246.126315789474,45.4947368421053,3728,-290.505263157895,3862,4024,-47.8315789473684,-189.884210526316,4122,3636,-278.094736842105,22,0,1555,1775,0,4,4,4,4,4,4,4,4,4,4,4,4,4,4,4,4
"100",3909,-207.315789473684,4067,243.042105263158,44.4736842105263,3730,-291.021052631579,3862,4028,-42.1894736842105,-190.4,4122,3643,-280.136842105263,23,0,1559,1779,0,4,4,4,4,4,4,4,4,4,4,4,4,4,4,4,4
"101",3912,-194.505263157895,4067,247.147368421053,49.0842105263158,3738,-288.452631578947,3867,4034,-29.8842105263158,-191.936842105263,4128,3654,-272.452631578947,24,0,1559,1775,0,4,4,4,4,4,4,4,4,4,4,4,4,4,4,4,4
"102",3911,-196.042105263158,4064,246.631578947368,48.5789473684211,3731,-296.663157894737,3864,4030,-39.6315789473684,-196.042105263158,4125,3646,-273.989473684211,25,0,1559,1779,0,4,4,4,4,4,4,4,4,4,4,4,4,4,4,4,4
"103",3905,-208.863157894737,4057,242.536842105263,46.5263157894737,3723,-302.810526315789,3852,4020,-49.3684210526316,-197.063157894737,4115,3635,-284.757894736842,26,0,1563,1775,0,4,4,4,4,4,4,4,4,4,4,4,4,4,4,4,4
"104",3902,-209.368421052632,4052,238.936842105263,43.9578947368421,3725,-305.378947368421,3850,4014,-44.2421052631579,-201.168421052632,4114,3635,-284.242105263158,27,0,1559,1775,0,4,4,4,4,4,4,4,4,4,4,4,4,4,4,4,4
"105",3886,-215.010526315789,4040,225.610526315789,32.6842105263158,3712,-318.2,3845,4005,-55.0105263157895,-212.957894736842,4101,3629,-292.957894736842,28,0,1559,1779,0,4,4,4,4,4,4,4,4,4,4,4,4,4,4,4,4
"106",3857,-235.526315789474,4025,206.631578947368,17.8105263157895,3686,-327.431578947368,3826,3996,-79.6315789473684,-224.242105263158,4076,3616,-322.18947368421,29,0,1563,1775,0,4,4,4,4,4,4,4,4,4,4,4,4,4,4,4,4
"107",3843,-245.778947368421,4022,202.021052631579,13.1894736842105,3679,-326.915789473684,3816,3998,-84.7578947368421,-226.810526315789,4069,3619,-331.421052631579,30,0,1559,1779,0,4,4,4,4,4,4,4,4,4,4,4,4,4,4,4,4
"108",3845,-242.705263157895,4020,203.042105263158,14.2210526315789,3679,-333.073684210526,3818,4003,-82.1894736842105,-226.810526315789,4070,3622,-323.726315789474,31,0,1563,1775,0,4,4,4,4,4,4,4,4,4,4,4,4,4,4,4,4
"109",3843,-244.242105263158,4008,199.452631578947,9.08421052631579,3667,-341.789473684211,3813,4001,-89.3684210526316,-228.863157894737,4056,3612,-336.042105263158,32,0,1559,1771,0,4,4,4,4,4,4,4,4,4,4,4,4,4,4,4,4
"110",3841,-247.831578947368,4003,198.431578947368,2.93684210526316,3664,-339.736842105263,3810,4002,-88.8631578947368,-232.957894736842,4055,3608,-341.684210526316,33,0,1559,1779,0,4,4,4,4,4,4,4,4,4,4,4,4,4,4,4,4
"111",3845,-238.094736842105,4007,205.094736842105,7.04210526315789,3679,-338.2,3817,4007,-76.5473684210526,-230.915789473684,4073,3616,-323.221052631579,34,0,1563,1775,0,4,4,4,4,4,4,4,4,4,4,4,4,4,4,4,4
"112",3846,-228.347368421053,4006,210.221052631579,14.2210526315789,3686,-341.789473684211,3820,4002,-71.9368421052632,-228.347368421053,4078,3617,-312.957894736842,35,0,1563,1775,0,4,4,4,4,4,4,4,4,4,4,4,4,4,4,4,4
"113",3850,-227.315789473684,4002,212.789473684211,14.7263157894737,3681,-341.273684210526,3821,3992,-71.9368421052632,-236.042105263158,4075,3608,-311.936842105263,36,0,1563,1775,0,4,4,4,4,4,4,4,4,4,4,4,4,4,4,4,4
"114",3859,-228.347368421053,4004,217.915789473684,14.2210526315789,3684,-340.252631578947,3830,3994,-64.2421052631579,-245.273684210526,4083,3610,-303.726315789474,37,0,1559,1779,0,4,4,4,4,4,4,4,4,4,4,4,4,4,4,4,4
"115",3864,-225.273684210526,4001,222.536842105263,17.8105263157895,3693,-341.789473684211,3833,3999,-63.7263157894737,-245.778947368421,4086,3622,-299.115789473684,38,0,1563,1775,0,4,4,4,4,4,4,4,4,4,4,4,4,4,4,4,4
"116",3862,-224.242105263158,3992,218.431578947368,19.3473684210526,3689,341.4,3816,3997,-77.5789473684211,-236.547368421053,4075,3625,-307.315789473684,39,0,1559,1775,0,4,4,4,4,4,4,4,4,4,4,4,4,4,4,4,4
"117",3853,-232.452631578947,3984,205.094736842105,15.2421052631579,3673,333.705263157895,3796,3994,-89.8842105263158,-228.863157894737,4060,3623,-321.168421052632,40,0,1563,1779,0,4,4,4,4,4,4,4,4,4,4,4,4,4,4,4,4
"118",3852,-242.705263157895,3977,199.452631578947,16.7789473684211,3669,332.684210526316,3792,4003,-89.3684210526316,-230.4,4053,3624,-331.936842105263,41,0,1559,1775,0,4,4,4,4,4,4,4,4,4,4,4,4,4,4,4,4
"119",3862,-239.115789473684,3978,208.684210526316,27.0421052631579,3676,336.273684210526,3797,4011,-84.7578947368421,-231.936842105263,4057,3628,-329.368421052632,42,0,1563,1779,0,4,4,4,4,4,4,4,4,4,4,4,4,4,4,4,4
"120",3866,-228.347368421053,3982,216.894736842105,30.1157894736842,3681,335.242105263158,3803,4011,-77.0631578947368,-228.863157894737,4068,3620,-318.094736842105,43,0,1563,1775,0,4,4,4,4,4,4,4,4,4,4,4,4,4,4,4,4
"121",3869,-221.168421052632,3984,219.452631578947,26.5263157894737,3684,333.18947368421,3810,4009,-67.8315789473684,-224.242105263158,4075,3607,-309.884210526316,44,0,1563,1775,0,4,4,4,4,4,4,4,4,4,4,4,4,4,4,4,4
"122",3879,-215.010526315789,3985,226.126315789474,34.2210526315789,3693,335.242105263158,3820,4016,-60.6526315789474,-225.273684210526,4084,3604,-301.168421052632,45,0,1563,1775,0,4,4,4,4,4,4,4,4,4,4,4,4,4,4,4,4
"123",3884,-209.884210526316,3985,236.378947368421,45.4947368421053,3700,336.273684210526,3829,4022,-51.4210526315789,-226.294736842105,4095,3606,-291.936842105263,46,0,1559,1775,0,4,4,4,4,4,4,4,4,4,4,4,4,4,4,4,4
"124",3886,-209.884210526316,3986,240.989473684211,46.5263157894737,3701,334.726315789474,3836,4014,-44.2421052631579,-222.189473684211,4097,3608,-288.347368421053,47,0,1563,1771,0,4,4,4,4,4,4,4,4,4,4,4,4,4,4,4,4
"125",3894,-209.884210526316,3988,237.4,46.5263157894737,3697,335.757894736842,3834,4008,-45.7789473684211,-213.989473684211,4091,3616,-295.010526315789,48,0,1559,1775,0,4,4,4,4,4,4,4,4,4,4,4,4,4,4,4,4
"126",3896,-209.368421052632,3984,235.347368421053,48.0631578947368,3690,334.221052631579,3832,4014,-46.8105263157895,-212.957894736842,4092,3619,-301.168421052632,49,0,1563,1771,0,4,4,4,4,4,4,4,4,4,4,4,4,4,4,4,4
"127",3891,-211.421052631579,3976,235.863157894737,49.6,3685,326.010526315789,3836,4012,-50.4,-220.652631578947,4090,3615,-299.115789473684,50,0,1559,1771,0,4,4,4,4,4,4,4,4,4,4,4,4,4,4,4,4
"128",3884,-215.010526315789,3971,227.663157894737,47.5473684210526,3681,320.884210526316,3828,4001,-66.2947368421053,-228.863157894737,4071,3625,-310.4,51,0,1563,1775,0,4,4,4,4,4,4,4,4,4,4,4,4,4,4,4,4
"129",3879,-220.136842105263,3966,217.4,46.0105263157895,3675,318.831578947368,3815,4001,-77.0631578947368,-229.368421052632,4058,3637,-327.315789473684,52,0,1559,1771,0,4,4,4,4,4,4,4,4,4,4,4,4,4,4,4,4
"130",3887,-217.578947368421,3969,223.557894736842,53.7052631578947,3676,317.810526315789,3822,4014,-67.8315789473684,-219.115789473684,4067,3637,-320.136842105263,53,0,1563,1775,0,4,4,4,4,4,4,4,4,4,4,4,4,4,4,4,4
"131",3897,-206.294736842105,3974,238.431578947368,64.4736842105263,3681,324.473684210526,3835,4022,-53.9894736842105,-211.421052631579,4080,3642,-303.726315789474,54,0,1563,1771,0,4,4,4,4,4,4,4,4,4,4,4,4,4,4,4,4
"132",3902,-201.168421052632,3971,240.484210526316,62.4210526315789,3679,333.705263157895,3839,4028,-50.4,-211.421052631579,4081,3661,-302.705263157895,55,0,1563,1771,0,4,4,4,4,4,4,4,4,4,4,4,4,4,4,4,4
"133",3907,-200.136842105263,3970,241.505263157895,60.8842105263158,3678,332.684210526316,3844,4033,-47.8315789473684,-205.273684210526,4084,3679,-299.115789473684,56,0,1563,1771,0,4,4,4,4,4,4,4,4,4,4,4,4,4,4,4,4
"134",3913,-191.421052631579,3977,251.252631578947,72.6842105263158,3688,332.684210526316,3856,4020,-38.0947368421053,-196.547368421053,4096,3690,-280.136842105263,57,0,1559,1775,0,4,4,4,4,4,4,4,4,4,4,4,4,4,4,4,4
"135",3920,-180.652631578947,3984,257.915789473684,81.9052631578947,3699,343.957894736842,3866,3988,-30.9157894736842,-192.452631578947,4105,3691,-272.452631578947,58,0,1563,1771,0,4,4,4,4,4,4,4,4,4,4,4,4,4,4,4,4
"136",3927,-178.094736842105,3988,260.484210526316,84.9894736842105,3699,-337.684210526316,3867,3978,-30.9157894736842,-186.294736842105,4099,3688,-277.578947368421,59,0,1559,1775,0,4,4,4,4,4,4,4,4,4,4,4,4,4,4,4,4
"137",3928,-179.115789473684,3987,264.073684210526,91.6526315789474,3701,-340.252631578947,3869,3992,-31.4210526315789,-178.094736842105,4093,3693,-277.578947368421,60,0,1563,1775,0,4,4,4,4,4,4,4,4,4,4,4,4,4,4,4,4
"138",3925,-180.136842105263,3985,265.610526315789,93.7052631578947,3706,-342.810526315789,3870,3996,-30.9157894736842,-177.578947368421,4095,3701,-277.578947368421,61,0,1559,1775,0,4,4,4,4,4,4,4,4,4,4,4,4,4,4,4,4
"139",3925,-182.705263157895,3986,263.557894736842,91.1368421052632,3704,-340.768421052632,3867,3997,-31.4210526315789,-179.115789473684,4095,3697,-282.18947368421,62,0,1559,1779,0,4,4,4,4,4,4,4,4,4,4,4,4,4,4,4,4
"140",3928,-175.526315789474,3986,266.631578947368,93.7052631578947,3702,-339.736842105263,3869,4005,-28.3473684210526,-179.115789473684,4093,3690,-280.136842105263,63,0,1559,1771,0,4,4,4,4,4,4,4,4,4,4,4,4,4,4,4,4
"141",3931,-166.294736842105,3987,269.2,96.778947368421,3696,-341.789473684211,3877,4007,-24.7578947368421,-180.136842105263,4095,3694,-274.505263157895,64,0,1559,1775,477,4,4,4,4,4,4,4,4,4,4,4,4,4,4,4,4
"142",3930,-169.884210526316,3988,266.126315789474,100.368421052632,3678,-340.252631578947,3877,4002,-23.7263157894737,-178.6,4096,3702,-275.010526315789,65,0,1559,1771,442,4,4,4,4,4,4,4,4,4,4,4,4,4,4,4,4
"143",3932,-178.094736842105,3989,265.094736842105,107.547368421053,3666,-337.168421052632,3874,4003,-20.6526315789474,-172.957894736842,4095,3698,-276.042105263158,66,0,1559,1771,494,4,4,4,4,4,4,4,4,4,4,4,4,4,4,4,4
"144",3941,-178.6,3989,269.2,110.115789473684,3670,-338.715789473684,3876,4008,-19.1157894736842,-171.421052631579,4096,3699,-276.042105263158,67,0,1555,1779,503,4,4,4,4,4,4,4,4,4,4,4,4,4,4,4,4
"145",3943,-178.094736842105,3990,272.789473684211,108.578947368421,3672,-339.736842105263,3877,4003,-19.6315789473684,-176.547368421053,4096,3708,-278.094736842105,68,0,1559,1771,496,4,4,4,4,4,4,4,4,4,4,4,4,4,4,4,4
"146",3939,-179.631578947368,3990,274.326315789474,111.136842105263,3670,-337.684210526316,3876,3992,-18.0947368421053,-177.578947368421,4096,3709,-276.547368421053,69,0,1555,1775,506,4,4,4,4,4,4,4,4,4,4,4,4,4,4,4,4
"147",3943,-182.189473684211,3989,272.789473684211,114.221052631579,3671,-341.789473684211,3876,3995,-20.1368421052632,-171.421052631579,4094,3704,-276.042105263158,70,0,1559,1775,495,4,4,4,4,4,4,4,4,4,4,4,4,4,4,4,4
"148",3941,-189.884210526316,3985,266.126315789474,111.652631578947,3666,338.831578947368,3876,4007,-29.8842105263158,-170.915789473684,4090,3705,-279.631578947368,71,0,1559,1771,413,4,4,4,4,4,4,4,4,4,4,4,4,4,4,4,4
"149",3931,-198.094736842105,3979,264.578947368421,110.115789473684,3658,335.242105263158,3875,4006,-31.9368421052632,-178.094736842105,4088,3706,-281.168421052632,72,0,1559,1775,455,4,4,4,4,4,4,4,4,4,4,4,4,4,4,4,4
"150",3932,-199.631578947368,3976,271.252631578947,110.631578947368,3663,335.757894736842,3877,4004,-22.7052631578947,-182.705263157895,4093,3704,-279.115789473684,73,0,1559,1775,455,4,4,4,4,4,4,4,4,4,4,4,4,4,4,4,4
"151",3943,-197.063157894737,3976,274.842105263158,111.652631578947,3669,335.242105263158,3883,4008,-16.5473684210526,-181.684210526316,4104,3706,-270.915789473684,74,0,1559,1771,499,4,4,4,4,4,4,4,4,4,4,4,4,4,4,4,4
"152",3942,-196.547368421053,3974,273.810526315789,114.726315789474,3666,332.684210526316,3888,4006,-19.6315789473684,-181.684210526316,4108,3706,-262.705263157895,75,0,1563,1771,485,4,4,4,4,4,4,4,4,4,4,4,4,4,4,4,4
"153",3937,-199.115789473684,3974,275.863157894737,121.4,3664,332.684210526316,3890,4006,-15.0105263157895,-182.189473684211,4109,3703,-261.168421052632,76,0,1559,1779,456,4,4,4,4,4,4,4,4,4,4,4,4,4,4,4,4
"154",3946,-195.010526315789,3981,287.663157894737,129.6,3681,339.863157894737,3902,4015,-1.16842105263158,-172.957894736842,4123,3707,-253.989473684211,77,0,1563,1771,474,4,4,4,4,4,4,4,4,4,4,4,4,4,4,4,4
"155",3957,-182.705263157895,3988,302.536842105263,140.368421052632,3697,-340.252631578947,3915,4021,4.98947368421053,-157.063157894737,4138,3717,-241.168421052632,78,0,1559,1775,499,4,4,4,4,4,4,4,4,4,4,4,4,4,4,4,4
"156",3961,-178.094736842105,3989,308.168421052632,148.578947368421,3695,-336.147368421053,3916,4021,1.4,-148.863157894737,4138,3720,-240.652631578947,79,0,1563,1779,485,4,4,4,4,4,4,4,4,4,4,4,4,4,4,4,4
"157",3962,-180.136842105263,3988,305.610526315789,147.042105263158,3691,-338.2,3914,4020,-3.22105263157895,-155.010526315789,4134,3716,-245.273684210526,80,0,1563,1771,456,4,4,4,4,4,4,4,4,4,4,4,4,4,4,4,4
"158",3961,-182.705263157895,3987,305.094736842105,142.421052631579,3694,-343.326315789474,3917,4020,-1.68421052631579,-162.189473684211,4136,3712,-240.652631578947,81,0,1563,1775,474,4,4,4,4,4,4,4,4,4,4,4,4,4,4,4,4
"159",3961,-191.421052631579,3986,305.094736842105,142.421052631579,3692,-340.768421052632,3913,4024,-1.68421052631579,-156.042105263158,4136,3713,-243.221052631579,82,0,1563,1779,499,4,4,4,4,4,4,4,4,4,4,4,4,4,4,4,4
"160",3958,-198.094736842105,3986,303.042105263158,142.421052631579,3689,-325.378947368421,3910,4030,-4.2421052631579,-144.757894736842,4131,3724,-251.421052631579,83,0,1563,1779,485,4,4,4,4,4,4,4,4,4,4,4,4,4,4,4,4
"161",3959,-186.294736842105,3989,304.073684210526,144.473684210526,3699,-316.147368421053,3921,4035,2.42105263157895,-146.294736842105,4139,3733,-241.684210526316,84,0,1559,1775,456,4,4,4,4,4,4,4,4,4,4,4,4,4,4,4,4
"162",3957,-182.189473684211,3991,306.126315789474,148.063157894737,3705,-320.252631578947,3929,4033,15.2421052631579,-156.547368421053,4150,3729,-230.4,85,0,1559,1779,474,4,4,4,4,4,4,4,4,4,4,4,4,4,4,4,4
"163",3957,-193.989473684211,3988,303.042105263158,151.652631578947,3699,-320.252631578947,3926,4029,13.1894736842105,-156.547368421053,4145,3724,-239.115789473684,86,0,1563,1775,499,4,4,4,4,4,4,4,4,4,4,4,4,4,4,4,4
"164",3966,-191.936842105263,3986,300.989473684211,155.242105263158,3698,-318.2,3923,4031,0.884210526315789,-151.936842105263,4137,3726,-247.831578947368,87,0,1559,1775,485,4,4,4,4,4,4,4,4,4,4,4,4,4,4,4,4
"165",3975,-179.631578947368,3995,308.684210526316,163.452631578947,3709,-317.684210526316,3927,4035,-1.68421052631579,-150.915789473684,4144,3734,-244.757894736842,88,0,1563,1775,456,4,4,4,4,4,4,4,4,4,4,4,4,4,4,4,4
"166",3977,-178.094736842105,4002,317.915789473684,167.042105263158,3716,-312.042105263158,3934,4032,-0.136842105263158,-149.368421052632,4153,3738,-240.652631578947,89,0,1559,1771,474,4,4,4,4,4,4,4,4,4,4,4,4,4,4,4,4
"167",3974,-180.652631578947,3994,315.863157894737,161.905263157895,3715,-315.126315789474,3935,4030,-2.70526315789474,-148.863157894737,4153,3732,-236.547368421053,90,0,1559,1775,499,4,4,4,4,4,4,4,4,4,4,4,4,4,4,4,4
"168",3974,-182.189473684211,3987,309.715789473684,157.810526315789,3713,-324.357894736842,3929,4034,-3.22105263157895,-153.989473684211,4151,3729,-231.936842105263,91,0,1559,1771,485,4,4,4,4,4,4,4,4,4,4,4,4,4,4,4,4
"169",3977,-183.221052631579,3992,310.736842105263,157.810526315789,3715,-323.326315789474,3930,4038,-0.136842105263158,-158.6,4154,3732,-229.368421052632,92,0,1563,1775,456,4,4,4,4,4,4,4,4,4,4,4,4,4,4,4,4
"170",3979,-179.115789473684,3992,310.736842105263,158.831578947368,3717,-322.810526315789,3935,4043,1.4,-157.063157894737,4157,3728,-225.778947368421,93,0,1559,1771,474,4,4,4,4,4,4,4,4,4,4,4,4,4,4,4,4
"171",3975,-185.778947368421,3979,304.073684210526,154.726315789474,3709,-336.147368421053,3927,4046,-2.70526315789474,-158.094736842105,4151,3723,-235.010526315789,94,0,1559,1775,499,4,4,4,4,4,4,4,4,4,4,4,4,4,4,4,4
"172",3972,-198.6,3975,302.021052631579,152.168421052632,3705,-341.789473684211,3921,4045,-5.77894736842105,-160.136842105263,4146,3732,-248.863157894737,95,0,1563,1771,485,4,4,4,4,4,4,4,4,4,4,4,4,4,4,4,4
"173",3975,-193.473684210526,3981,306.631578947368,155.242105263158,3715,-338.715789473684,3926,4044,-2.18947368421053,-155.526315789474,4152,3738,-243.221052631579,96,0,1559,1779,456,4,4,4,4,4,4,4,4,4,4,4,4,4,4,4,4
"174",3975,-184.757894736842,3978,305.610526315789,156.273684210526,3722,343.957894736842,3929,4043,-1.68421052631579,-151.936842105263,4153,3737,-236.042105263158,97,0,1563,1775,474,4,4,4,4,4,4,4,4,4,4,4,4,4,4,4,4
"175",3972,-186.294736842105,3977,305.610526315789,152.684210526316,3721,334.726315789474,3933,4047,-0.136842105263158,-151.421052631579,4153,3743,-238.094736842105,98,0,1559,1775,499,4,4,4,4,4,4,4,4,4,4,4,4,4,4,4,4
"176",3976,-183.726315789474,3987,314.326315789474,153.705263157895,3731,338.315789473684,3943,4052,10.1157894736842,-148.863157894737,4165,3745,-229.368421052632,99,0,1563,1775,485,4,4,4,4,4,4,4,4,4,4,4,4,4,4,4,4
"177",3981,-177.578947368421,3991,317.4,157.294736842105,3742,341.905263157895,3945,4049,15.7578947368421,-148.347368421053,4173,3738,-221.684210526316,100,0,1563,1775,456,4,4,4,4,4,4,4,4,4,4,4,4,4,4,4,4
"178",3976,-180.136842105263,3989,313.305263157895,154.221052631579,3738,337.294736842105,3947,4046,12.1684210526316,-148.863157894737,4174,3739,-226.810526315789,101,0,1563,1779,474,4,4,4,4,4,4,4,4,4,4,4,4,4,4,4,4
"179",3975,-181.684210526316,3990,315.863157894737,151.136842105263,3736,334.726315789474,3954,4051,12.1684210526316,-146.294736842105,4181,3742,-223.221052631579,102,0,1563,1775,499,4,4,4,4,4,4,4,4,4,4,4,4,4,4,4,4
"180",3983,-171.421052631579,3994,322.536842105263,153.189473684211,3748,335.757894736842,3959,4055,17.8105263157895,-146.294736842105,4188,3740,-208.347368421053,103,0,1563,1775,485,4,4,4,4,4,4,4,4,4,4,4,4,4,4,4,4
"181",3983,-166.294736842105,3995,319.968421052632,154.221052631579,3753,336.778947368421,3958,4053,18.8315789473684,-149.368421052632,4186,3739,-209.368421052632,104,0,1563,1775,456,4,4,4,4,4,4,4,4,4,4,4,4,4,4,4,4
"182",3976,-173.989473684211,3993,312.789473684211,148.063157894737,3746,334.221052631579,3957,4051,15.2421052631579,-150.915789473684,4181,3734,-221.684210526316,105,0,1563,1775,474,4,4,4,4,4,4,4,4,4,4,4,4,4,4,4,4
"183",3975,-175.010526315789,3991,310.221052631579,141.4,3744,326.526315789474,3957,4051,15.2421052631579,-151.421052631579,4185,3728,-218.6,106,0,1559,1779,499,4,4,4,4,4,4,4,4,4,4,4,4,4,4,4,4
"184",3976,-172.957894736842,3992,307.663157894737,140.368421052632,3747,320.884210526316,3950,4051,16.7789473684211,-151.421052631579,4185,3730,-212.452631578947,107,0,1563,1771,485,4,4,4,4,4,4,4,4,4,4,4,4,4,4,4,4
"185",3977,-178.6,3993,303.557894736842,141.905263157895,3742,320.368421052632,3943,4046,12.1684210526316,-155.010526315789,4174,3731,-224.757894736842,108,0,1559,1775,456,4,4,4,4,4,4,4,4,4,4,4,4,4,4,4,4
"186",3983,-176.042105263158,3993,303.042105263158,141.905263157895,3744,321.905263157895,3950,4042,11.1368421052632,-161.684210526316,4174,3728,-231.936842105263,109,0,1559,1775,474,4,4,4,4,4,4,4,4,4,4,4,4,4,4,4,4
"187",3989,-164.757894736842,3996,307.147368421053,141.4,3755,324.989473684211,3959,4048,17.8105263157895,-155.526315789474,4187,3736,-220.136842105263,110,0,1559,1771,499,4,4,4,4,4,4,4,4,4,4,4,4,4,4,4,4
"188",3989,-164.757894736842,3997,308.168421052632,141.4,3752,324.473684210526,3958,4053,18.3157894736842,-151.421052631579,4188,3739,-211.421052631579,111,0,1555,1775,485,4,4,4,4,4,4,4,4,4,4,4,4,4,4,4,4
"189",3988,-172.452631578947,3993,305.610526315789,141.905263157895,3744,320.884210526316,3954,4050,14.7263157894737,-162.705263157895,4185,3732,-212.452631578947,112,0,1559,1775,456,4,4,4,4,4,4,4,4,4,4,4,4,4,4,4,4
"190",3984,-176.547368421053,3988,303.042105263158,137.810526315789,3745,318.831578947368,3947,4045,8.06315789473684,-164.757894736842,4181,3731,-220.652631578947,113,0,1559,1775,474,4,4,4,4,4,4,4,4,4,4,4,4,4,4,4,4
"191",3978,-180.652631578947,3987,297.915789473684,129.084210526316,3742,314.726315789474,3939,4044,-1.68421052631579,-157.578947368421,4167,3734,-233.989473684211,114,0,1559,1771,499,4,4,4,4,4,4,4,4,4,4,4,4,4,4,4,4
"192",3974,-180.652631578947,3986,295.863157894737,124.473684210526,3739,306.010526315789,3944,4039,-1.16842105263158,-162.705263157895,4169,3726,-231.936842105263,115,0,1555,1779,485,4,4,4,4,4,4,4,4,4,4,4,4,4,4,4,4
"193",3975,-180.136842105263,3986,296.894736842105,124.989473684211,3744,304.989473684211,3947,4033,4.98947368421053,-169.368421052632,4184,3721,-223.221052631579,116,0,1563,1771,456,4,4,4,4,4,4,4,4,4,4,4,4,4,4,4,4
"194",3977,-179.631578947368,3986,295.863157894737,124.473684210526,3747,304.989473684211,3943,4034,2.42105263157895,-167.315789473684,4181,3724,-226.810526315789,117,0,1555,1775,474,4,4,4,4,4,4,4,4,4,4,4,4,4,4,4,4
"195",3974,-172.452631578947,3985,297.915789473684,120.368421052632,3748,302.936842105263,3948,4038,3.95789473684211,-166.810526315789,4175,3719,-223.221052631579,118,0,1559,1775,499,4,4,4,4,4,4,4,4,4,4,4,4,4,4,4,4
"196",3976,-164.242105263158,3991,311.757894736842,124.989473684211,3756,312.684210526316,3962,4042,18.3157894736842,-164.242105263158,4192,3719,-207.315789473684,119,0,1559,1771,485,4,4,4,4,4,4,4,4,4,4,4,4,4,4,4,4
"197",3987,-161.684210526316,4002,324.073684210526,134.726315789474,3763,326.010526315789,3969,4048,23.9578947368421,-156.042105263158,4205,3728,-204.757894736842,120,0,1559,1775,456,4,4,4,4,4,4,4,4,4,4,4,4,4,4,4,4
"198",3986,-164.242105263158,4001,318.936842105263,133.189473684211,3755,323.452631578947,3960,4052,14.7263157894737,-148.347368421053,4191,3733,-216.042105263158,121,0,1559,1775,474,4,4,4,4,4,4,4,4,4,4,4,4,4,4,4,4
"199",3974,-172.957894736842,3998,307.663157894737,125.494736842105,3745,313.18947368421,3946,4052,12.1684210526316,-148.863157894737,4181,3732,-216.042105263158,122,0,1559,1775,499,4,4,4,4,4,4,4,4,4,4,4,4,4,4,4,4
"200",3973,-179.115789473684,4001,299.452631578947,125.494736842105,3745,303.957894736842,3944,4048,13.1894736842105,-159.631578947368,4187,3724,-212.452631578947,123,0,1559,1771,485,4,4,4,4,4,4,4,4,4,4,4,4,4,4,4,4
"201",3974,-180.652631578947,3997,290.221052631579,123.452631578947,3743,293.705263157895,3946,4041,1.4,-170.4,4180,3715,-222.705263157895,124,0,1559,1779,456,4,4,4,4,4,4,4,4,4,4,4,4,4,4,4,4
"202",3964,-189.884210526316,3990,279.968421052632,112.168421052632,3731,287.547368421053,3935,4031,-12.9578947368421,-168.347368421053,4165,3714,-233.473684210526,125,0,1563,1771,474,4,4,4,4,4,4,4,4,4,4,4,4,4,4,4,4
"203",3957,-198.094736842105,3987,278.431578947368,107.042105263158,3727,287.547368421053,3930,4027,-10.9157894736842,-166.810526315789,4166,3715,-232.452631578947,126,0,1559,1775,499,4,4,4,4,4,4,4,4,4,4,4,4,4,4,4,4
"204",3961,-192.957894736842,3991,280.989473684211,111.136842105263,3736,286.010526315789,3942,4037,-1.16842105263158,-176.042105263158,4173,3709,-227.831578947368,127,0,1563,1775,485,4,4,4,4,4,4,4,4,4,4,4,4,4,4,4,4
"205",3961,-190.4,3990,277.4,111.652631578947,3736,280.884210526316,3943,4046,0.368421052631579,-183.221052631579,4171,3704,-229.884210526316,128,0,1563,1771,456,4,4,4,4,4,4,4,4,4,4,4,4,4,4,4,4
"206",3955,-196.547368421053,3982,271.252631578947,102.421052631579,3729,277.810526315789,3931,4038,-5.27368421052632,-184.242105263158,4170,3700,-235.010526315789,0,0,1559,1775,477,4,4,4,4,4,4,4,4,4,4,4,4,4,4,4,4
"207",3948,-201.684210526316,3976,263.557894736842,95.2421052631579,3721,275.757894736842,3922,4026,-11.9368421052632,-183.726315789474,4162,3697,-244.757894736842,1,0,1559,1771,446,4,4,4,4,4,4,4,4,4,4,4,4,4,4,4,4
"208",3938,-211.936842105263,3971,250.736842105263,92.6842105263158,3709,267.547368421053,3912,4023,-20.6526315789474,-182.189473684211,4145,3695,-257.578947368421,2,0,1563,1775,494,4,4,4,4,4,4,4,4,4,4,4,4,4,4,4,4
"209",3928,-226.294736842105,3962,239.452631578947,84.4736842105263,3701,257.294736842105,3905,4020,-29.8842105263158,-187.315789473684,4135,3687,-264.757894736842,3,0,1559,1771,503,4,4,4,4,4,4,4,4,4,4,4,4,4,4,4,4
"210",3926,-228.347368421053,3960,239.452631578947,77.2947368421053,3706,255.242105263158,3906,4013,-32.9578947368421,-196.042105263158,4136,3681,-261.684210526316,4,0,1559,1775,496,4,4,4,4,4,4,4,4,4,4,4,4,4,4,4,4
"211",3927,-218.094736842105,3966,242.021052631579,81.4,3711,260.368421052632,3909,4010,-32.9578947368421,-196.547368421053,4139,3681,-259.115789473684,5,0,1563,1771,506,4,4,4,4,4,4,4,4,4,4,4,4,4,4,4,4
"212",3928,-212.452631578947,3967,240.989473684211,83.4526315789474,3710,261.4,3909,4012,-30.9157894736842,-192.957894736842,4143,3681,-260.652631578947,6,0,1559,1775,495,4,4,4,4,4,4,4,4,4,4,4,4,4,4,4,4
"213",3927,-215.010526315789,3966,243.042105263158,78.3157894736842,3715,251.652631578947,3910,4014,-20.6526315789474,-193.989473684211,4152,3678,-252.957894736842,7,0,1559,1775,413,4,4,4,4,4,4,4,4,4,4,4,4,4,4,4,4
"214",3928,-215.010526315789,3962,244.073684210526,76.7789473684211,3721,237.294736842105,3912,4012,-15.5263157894737,-195.526315789474,4157,3678,-248.347368421053,8,0,1559,1771,455,4,4,4,4,4,4,4,4,4,4,4,4,4,4,4,4
"215",3925,-214.505263157895,3956,236.378947368421,76.7789473684211,3715,231.136842105263,3909,4011,-24.2421052631579,-191.936842105263,4144,3679,-262.18947368421,9,0,1559,1775,455,4,4,4,4,4,4,4,4,4,4,4,4,4,4,4,4
"216",3925,-216.547368421053,3962,233.810526315789,79.8631578947368,3712,236.273684210526,3904,4015,-27.3157894736842,-185.273684210526,4136,3679,-267.315789473684,10,0,1559,1771,499,4,4,4,4,4,4,4,4,4,4,4,4,4,4,4,4
"217",3935,-207.315789473684,3975,245.610526315789,90.1157894736842,3728,244.989473684211,3915,4021,-16.5473684210526,-180.652631578947,4151,3683,-248.863157894737,11,0,1559,1771,485,4,4,4,4,4,4,4,4,4,4,4,4,4,4,4,4
"218",3943,-192.957894736842,3978,254.842105263158,94.7263157894737,3741,251.136842105263,3928,4031,-9.88421052631579,-178.6,4162,3690,-237.578947368421,12,0,1559,1775,456,4,4,4,4,4,4,4,4,4,4,4,4,4,4,4,4
"219",3942,-197.063157894737,3974,251.757894736842,93.1894736842105,3732,247.547368421053,3919,4036,-12.4526315789474,-171.936842105263,4155,3695,-246.294736842105,13,0,1559,1771,474,4,4,4,4,4,4,4,4,4,4,4,4,4,4,4,4
"220",3940,-208.863157894737,3974,244.073684210526,90.6315789473684,3727,241.905263157895,3909,4031,-15.0105263157895,-174.505263157895,4152,3693,-248.347368421053,14,0,1559,1775,499,4,4,4,4,4,4,4,4,4,4,4,4,4,4,4,4
"221",3935,-210.915789473684,3974,238.431578947368,83.4526315789474,3731,242.936842105263,3916,4022,-12.4526315789474,-190.915789473684,4159,3685,-242.189473684211,15,0,1559,1771,485,4,4,4,4,4,4,4,4,4,4,4,4,4,4,4,4
"222",3927,-209.884210526316,3964,234.326315789474,75.7578947368421,3727,243.452631578947,3913,4011,-13.9894736842105,-204.242105263158,4158,3679,-246.294736842105,16,0,1559,1775,0,4,4,4,4,4,4,4,4,4,4,4,4,4,4,4,4
"223",3924,-212.452631578947,3956,228.168421052632,77.8105263157895,3718,239.347368421053,3890,4005,-24.2421052631579,-206.810526315789,4145,3677,-259.115789473684,17,0,1563,1771,0,4,4,4,4,4,4,4,4,4,4,4,4,4,4,4,4
"224",3927,-221.168421052632,3959,222.021052631579,76.2736842105263,3712,239.347368421053,3875,4004,-33.4736842105263,-209.368421052632,4132,3678,-269.368421052632,18,0,1555,1775,0,4,4,4,4,4,4,4,4,4,4,4,4,4,4,4,4
"225",3924,-229.368421052632,3957,217.4,67.0421052631579,3708,240.368421052632,3875,4004,-36.0421052631579,-216.042105263158,4127,3675,-275.010526315789,19,0,1559,1775,0,4,4,4,4,4,4,4,4,4,4,4,4,4,4,4,4
"226",3919,-227.315789473684,3949,213.810526315789,64.9894736842105,3711,236.778947368421,3877,4008,-31.4210526315789,-213.989473684211,4130,3672,-271.936842105263,20,0,1559,1771,0,4,4,4,4,4,4,4,4,4,4,4,4,4,4,4,4
"227",3914,-230.915789473684,3944,206.631578947368,62.4210526315789,3708,229.084210526316,3870,4006,-32.4526315789474,-211.936842105263,4126,3670,-272.452631578947,21,0,1559,1775,0,4,4,4,4,4,4,4,4,4,4,4,4,4,4,4,4
"228",3897,-259.631578947368,3928,184.578947368421,40.8842105263158,3679,210.631578947368,3843,3987,-58.6,-229.884210526316,4099,3653,-302.18947368421,22,0,1559,1775,0,4,4,4,4,4,4,4,4,4,4,4,4,4,4,4,4
"229",3871,-292.452631578947,3904,151.252631578947,15.2421052631579,3647,190.631578947368,3810,3968,-87.3157894736842,-249.368421052632,4067,3633,-335.010526315789,23,0,1559,1771,0,4,4,4,4,4,4,4,4,4,4,4,4,4,4,4,4
"230",3860,-299.115789473684,3893,137.915789473684,9.08421052631579,3640,187.042105263158,3803,3969,-87.3157894736842,-248.863157894737,4064,3631,-333.989473684211,24,0,1559,1771,0,4,4,4,4,4,4,4,4,4,4,4,4,4,4,4,4
"231",3864,-292.452631578947,3896,151.252631578947,13.1894736842105,3649,194.221052631579,3814,3972,-75.5263157894737,-244.757894736842,4078,3636,-319.115789473684,25,0,1559,1775,0,4,4,4,4,4,4,4,4,4,4,4,4,4,4,4,4
"232",3864,-291.421052631579,3896,156.378947368421,11.6526315789474,3651,194.221052631579,3817,3969,-80.6526315789474,-247.315789473684,4077,3633,-321.168421052632,26,0,1563,1767,0,4,4,4,4,4,4,4,4,4,4,4,4,4,4,4,4
"233",3859,-292.957894736842,3893,143.042105263158,11.1368421052632,3651,192.168421052632,3811,3969,-85.7789473684211,-249.368421052632,4070,3633,-328.863157894737,27,0,1555,1771,0,4,4,4,4,4,4,4,4,4,4,4,4,4,4,4,4
"234",3862,-292.452631578947,3893,142.021052631579,14.2210526315789,3661,196.273684210526,3814,3971,-77.0631578947368,-255.010526315789,4075,3636,-319.631578947368,28,0,1563,1775,0,4,4,4,4,4,4,4,4,4,4,4,4,4,4,4,4
"235",3872,-287.315789473684,3896,154.326315789474,21.4,3668,203.452631578947,3821,3970,-71.9368421052632,-260.652631578947,4078,3635,-309.368421052632,29,0,1559,1771,0,4,4,4,4,4,4,4,4,4,4,4,4,4,4,4,4
"236",3881,-280.136842105263,3898,157.4,29.6,3670,206.010526315789,3822,3970,-71.4210526315789,-258.094736842105,4078,3637,-310.915789473684,30,0,1559,1775,0,4,4,4,4,4,4,4,4,4,4,4,4,4,4,4,4
"237",3878,-276.042105263158,3896,151.252631578947,26.5263157894737,3675,201.4,3826,3972,-64.7578947368421,-253.989473684211,4090,3640,-308.347368421053,31,0,1559,1775,0,4,4,4,4,4,4,4,4,4,4,4,4,4,4,4,4
"238",3874,-279.115789473684,3895,155.347368421053,18.8315789473684,3675,200.884210526316,3832,3974,-63.2210526315789,-250.4,4093,3636,-303.726315789474,32,0,1563,1775,0,4,4,4,4,4,4,4,4,4,4,4,4,4,4,4,4
"239",3877,-287.831578947368,3896,155.863157894737,18.8315789473684,3667,208.063157894737,3823,3979,-73.9894736842105,-245.273684210526,4077,3635,-313.989473684211,33,0,1559,1771,0,4,4,4,4,4,4,4,4,4,4,4,4,4,4,4,4
"240",3878,-296.042105263158,3897,142.536842105263,19.3473684210526,3663,211.136842105263,3812,3982,-82.7052631578947,-244.757894736842,4067,3639,-330.915789473684,34,0,1559,1775,0,4,4,4,4,4,4,4,4,4,4,4,4,4,4,4,4
"241",3875,-295.010526315789,3896,142.021052631579,20.3684210526316,3665,211.136842105263,3815,3978,-78.0947368421053,-252.452631578947,4074,3639,-328.347368421053,35,0,1563,1771,0,4,4,4,4,4,4,4,4,4,4,4,4,4,4,4,4
"242",3882,-283.221052631579,3900,155.347368421053,30.1157894736842,3673,218.831578947368,3825,3979,-65.7789473684211,-258.094736842105,4087,3633,-308.863157894737,36,0,1555,1775,0,4,4,4,4,4,4,4,4,4,4,4,4,4,4,4,4
"243",3893,-272.957894736842,3907,159.968421052632,34.2210526315789,3687,227.042105263158,3835,3981,-53.9894736842105,-255.010526315789,4095,3641,-292.957894736842,37,0,1559,1775,0,4,4,4,4,4,4,4,4,4,4,4,4,4,4,4,4
"244",3897,-266.294736842105,3910,160.484210526316,30.6315789473684,3698,227.547368421053,3847,3975,-48.8631578947368,-256.547368421053,4107,3647,-284.242105263158,38,0,1559,1771,0,4,4,4,4,4,4,4,4,4,4,4,4,4,4,4,4
"245",3897,-256.042105263158,3911,173.305263157895,37.8105263157895,3708,228.063157894737,3858,3973,-44.7578947368421,-262.705263157895,4122,3642,-276.042105263158,39,0,1559,1775,0,4,4,4,4,4,4,4,4,4,4,4,4,4,4,4,4
"246",3900,-253.989473684211,3913,176.378947368421,45.4947368421053,3708,230.115789473684,3858,3977,-46.2947368421053,-255.526315789474,4116,3643,-278.6,40,0,1555,1775,0,4,4,4,4,4,4,4,4,4,4,4,4,4,4,4,4
"247",3898,-269.368421052632,3910,162.021052631579,36.7789473684211,3692,228.063157894737,3847,3976,-58.0947368421053,-245.778947368421,4094,3647,-295.526315789474,41,0,1563,1775,0,4,4,4,4,4,4,4,4,4,4,4,4,4,4,4,4
"248",3894,-273.473684210526,3909,157.4,32.6842105263158,3687,228.578947368421,3843,3978,-60.6526315789474,-246.810526315789,4090,3640,-302.18947368421,42,0,1555,1771,0,4,4,4,4,4,4,4,4,4,4,4,4,4,4,4,4
"249",3897,-261.684210526316,3910,166.631578947368,42.9368421052632,3695,233.705263157895,3849,3991,-50.4,-245.778947368421,4101,3632,-294.505263157895,43,0,1559,1779,0,4,4,4,4,4,4,4,4,4,4,4,4,4,4,4,4
"250",3900,-265.273684210526,3910,168.684210526316,43.9578947368421,3692,233.189473684211,3851,4003,-45.7789473684211,-241.684210526316,4108,3638,-287.831578947368,44,0,1563,1771,0,4,4,4,4,4,4,4,4,4,4,4,4,4,4,4,4
"251",3898,-276.547368421053,3909,159.452631578947,32.6842105263158,3683,224.473684210526,3847,4005,-48.3473684210526,-241.168421052632,4105,3648,-290.4,45,0,1555,1775,0,4,4,4,4,4,4,4,4,4,4,4,4,4,4,4,4
"252",3899,-276.042105263158,3907,157.915789473684,28.5789473684211,3674,218.315789473684,3844,4000,-53.9894736842105,-242.189473684211,4093,3645,-304.242105263158,46,0,1559,1775,0,4,4,4,4,4,4,4,4,4,4,4,4,4,4,4,4
"253",3907,-273.473684210526,3907,166.126315789474,30.6315789473684,3667,217.810526315789,3842,3998,-58.0947368421053,-242.705263157895,4086,3637,-306.810526315789,47,0,1559,1775,0,4,4,4,4,4,4,4,4,4,4,4,4,4,4,4,4
"254",3910,-277.578947368421,3910,169.715789473684,30.6315789473684,3666,219.347368421053,3847,3996,-55.0105263157895,-248.347368421053,4094,3644,-293.989473684211,48,0,1559,1775,0,4,4,4,4,4,4,4,4,4,4,4,4,4,4,4,4
"255",3910,-277.063157894737,3912,168.684210526316,31.1368421052632,3670,220.884210526316,3848,3990,-55.0105263157895,-258.094736842105,4096,3655,-290.915789473684,49,0,1559,1775,0,4,4,4,4,4,4,4,4,4,4,4,4,4,4,4,4
"256",3913,-278.6,3910,168.684210526316,34.2210526315789,3666,224.473684210526,3838,3989,-59.1157894736842,-262.705263157895,4092,3652,-296.547368421053,50,0,1563,1771,0,4,4,4,4,4,4,4,4,4,4,4,4,4,4,4,4
"257",3916,-284.757894736842,3911,171.252631578947,36.7789473684211,3661,228.063157894737,3843,3991,-58.0947368421053,-258.6,4090,3650,-295.526315789474,51,0,1559,1775,0,4,4,4,4,4,4,4,4,4,4,4,4,4,4,4,4
"258",3915,-287.315789473684,3909,173.810526315789,34.7263157894737,3663,227.042105263158,3853,3988,-51.4210526315789,-255.526315789474,4096,3653,-292.452631578947,52,0,1559,1771,0,4,4,4,4,4,4,4,4,4,4,4,4,4,4,4,4
"259",3911,-288.347368421053,3899,174.326315789474,30.1157894736842,3663,224.989473684211,3839,3987,-47.3157894736842,-258.6,4104,3650,-290.4,53,0,1563,1775,0,4,4,4,4,4,4,4,4,4,4,4,4,4,4,4,4
"260",3909,-291.936842105263,3894,170.736842105263,30.6315789473684,3657,226.010526315789,3812,3993,-49.8842105263158,-253.473684210526,4095,3649,-292.957894736842,54,0,1563,1771,0,4,4,4,4,4,4,4,4,4,4,4,4,4,4,4,4
"261",3909,-294.505263157895,3895,168.684210526316,34.7263157894737,3652,226.526315789474,3800,4002,-56.5473684210526,-242.705263157895,4081,3653,-304.757894736842,55,0,1559,1775,0,4,4,4,4,4,4,4,4,4,4,4,4,4,4,4,4
"262",3908,-298.094736842105,3892,170.221052631579,32.1684210526316,3650,223.957894736842,3795,4006,-61.6842105263158,-241.684210526316,4076,3652,-311.936842105263,56,0,1567,1775,0,4,4,4,4,4,4,4,4,4,4,4,4,4,4,4,4
"263",3908,-304.757894736842,3890,168.684210526316,28.0631578947368,3651,222.421052631579,3786,4002,-65.2736842105263,-246.294736842105,4074,3648,-311.421052631579,57,0,1559,1775,0,4,4,4,4,4,4,4,4,4,4,4,4,4,4,4,4
"264",3909,-301.684210526316,3892,166.126315789474,35.2421052631579,3651,227.547368421053,3786,3997,-66.2947368421053,-246.294736842105,4076,3648,-309.884210526316,58,0,1563,1775,0,4,4,4,4,4,4,4,4,4,4,4,4,4,4,4,4
"265",3913,-290.915789473684,3892,174.842105263158,46.5263157894737,3653,236.778947368421,3795,3997,-59.6315789473684,-244.242105263158,4088,3653,-299.631578947368,59,0,1563,1775,0,4,4,4,4,4,4,4,4,4,4,4,4,4,4,4,4
"266",3921,-283.726315789474,3900,187.147368421053,49.6,3662,243.452631578947,3801,3998,-55.5263157894737,-245.778947368421,4090,3656,-292.452631578947,60,0,1563,1775,0,4,4,4,4,4,4,4,4,4,4,4,4,4,4,4,4
"267",3928,-278.6,3911,188.684210526316,46.0105263157895,3669,245.494736842105,3802,4000,-55.0105263157895,-248.863157894737,4093,3653,-291.936842105263,61,0,1559,1775,0,4,4,4,4,4,4,4,4,4,4,4,4,4,4,4,4
"268",3928,-275.526315789474,3912,187.663157894737,46.5263157894737,3670,248.063157894737,3806,4005,-44.2421052631579,-244.757894736842,4108,3655,-281.684210526316,62,0,1559,1775,0,4,4,4,4,4,4,4,4,4,4,4,4,4,4,4,4
"269",3927,-277.063157894737,3910,190.221052631579,52.6842105263158,3667,250.115789473684,3809,4013,-35.0105263157895,-232.957894736842,4109,3665,-276.042105263158,63,0,1559,1771,0,4,4,4,4,4,4,4,4,4,4,4,4,4,4,4,4
"270",3927,-274.505263157895,3913,190.736842105263,54.2210526315789,3668,249.084210526316,3805,4020,-39.6315789473684,-227.831578947368,4098,3668,-288.347368421053,64,0,1559,1775,477,4,4,4,4,4,4,4,4,4,4,4,4,4,4,4,4
"271",3927,-272.452631578947,3914,187.147368421053,49.0842105263158,3669,252.168421052632,3800,4020,-45.7789473684211,-231.936842105263,4095,3664,-296.042105263158,65,0,1563,1771,448,4,4,4,4,4,4,4,4,4,4,4,4,4,4,4,4
"272",3925,-278.6,3910,184.578947368421,50.1157894736842,3665,256.778947368421,3800,4013,-49.3684210526316,-232.957894736842,4093,3666,-293.473684210526,66,0,1555,1771,494,4,4,4,4,4,4,4,4,4,4,4,4,4,4,4,4
"273",3925,-276.547368421053,3911,185.094736842105,58.8315789473684,3666,256.778947368421,3800,4013,-50.9157894736842,-229.884210526316,4087,3668,-294.505263157895,67,0,1559,1775,503,4,4,4,4,4,4,4,4,4,4,4,4,4,4,4,4
"274",3935,-264.242105263158,3921,187.147368421053,62.4210526315789,3676,262.421052631579,3801,4021,-48.8631578947368,-227.831578947368,4093,3666,-293.989473684211,68,0,1559,1767,496,4,4,4,4,4,4,4,4,4,4,4,4,4,4,4,4
"275",3943,-259.115789473684,3927,190.736842105263,60.8842105263158,3682,271.136842105263,3809,4020,-46.8105263157895,-226.810526315789,4105,3670,-285.273684210526,69,0,1559,1771,506,4,4,4,4,4,4,4,4,4,4,4,4,4,4,4,4
"276",3944,-260.652631578947,3927,197.4,62.9368421052632,3681,271.136842105263,3815,4018,-43.2210526315789,-227.315789473684,4106,3675,-280.652631578947,70,0,1559,1771,495,4,4,4,4,4,4,4,4,4,4,4,4,4,4,4,4
"277",3950,-252.452631578947,3929,203.042105263158,63.9578947368421,3686,269.6,3816,4019,-35.0105263157895,-229.884210526316,4108,3672,-275.010526315789,71,0,1563,1771,413,4,4,4,4,4,4,4,4,4,4,4,4,4,4,4,4
"278",3958,-242.705263157895,3932,203.042105263158,63.4526315789474,3694,273.18947368421,3826,4022,-24.2421052631579,-228.863157894737,4120,3668,-264.757894736842,72,0,1559,1767,456,4,4,4,4,4,4,4,4,4,4,4,4,4,4,4,4
"279",3957,-242.189473684211,3928,204.578947368421,63.9578947368421,3698,272.684210526316,3835,4026,-17.5789473684211,-228.347368421053,4130,3668,-256.042105263158,73,0,1559,1775,455,4,4,4,4,4,4,4,4,4,4,4,4,4,4,4,4
"280",3954,-243.221052631579,3927,207.147368421053,65.4947368421053,3695,269.6,3825,4029,-23.7263157894737,-227.831578947368,4123,3667,-260.652631578947,74,0,1563,1771,499,4,4,4,4,4,4,4,4,4,4,4,4,4,4,4,4
"281",3956,-243.726315789474,3927,203.042105263158,66.0105263157895,3691,271.136842105263,3813,4031,-34.5052631578947,-225.273684210526,4107,3666,-275.010526315789,75,0,1559,1771,485,4,4,4,4,4,4,4,4,4,4,4,4,4,4,4,4
"282",3957,-244.757894736842,3926,204.578947368421,64.9894736842105,3694,273.18947368421,3823,4037,-32.9578947368421,-225.273684210526,4108,3667,-278.6,76,0,1563,1775,456,4,4,4,4,4,4,4,4,4,4,4,4,4,4,4,4
"283",3956,-242.189473684211,3926,210.736842105263,66.0105263157895,3699,272.684210526316,3831,4040,-28.3473684210526,-229.368421052632,4118,3668,-272.957894736842,77,0,1563,1771,474,4,4,4,4,4,4,4,4,4,4,4,4,4,4,4,4
"284",3951,-243.221052631579,3919,207.663157894737,65.4947368421053,3696,271.652631578947,3821,4036,-32.4526315789474,-230.4,4115,3668,-272.452631578947,78,0,1559,1771,499,4,4,4,4,4,4,4,4,4,4,4,4,4,4,4,4
"285",3948,-247.315789473684,3910,199.452631578947,61.4,3690,271.136842105263,3812,4037,-35.5263157894737,-226.810526315789,4104,3667,-275.526315789474,79,0,1559,1775,485,4,4,4,4,4,4,4,4,4,4,4,4,4,4,4,4
"286",3953,-246.294736842105,3916,202.021052631579,60.8842105263158,3691,272.168421052632,3814,4044,-33.9894736842105,-226.810526315789,4106,3666,-276.042105263158,80,0,1563,1771,456,4,4,4,4,4,4,4,4,4,4,4,4,4,4,4,4
"287",3959,-244.242105263158,3926,213.305263157895,63.4526315789474,3694,272.684210526316,3819,4042,-32.9578947368421,-228.863157894737,4110,3666,-278.6,81,0,1559,1771,474,4,4,4,4,4,4,4,4,4,4,4,4,4,4,4,4
"288",3958,-240.652631578947,3924,218.431578947368,63.4526315789474,3695,274.221052631579,3824,4043,-31.4210526315789,-229.884210526316,4110,3665,-278.094736842105,82,0,1555,1779,499,4,4,4,4,4,4,4,4,4,4,4,4,4,4,4,4
"289",3959,-232.957894736842,3922,217.4,61.4,3698,277.294736842105,3831,4053,-31.9368421052632,-230.915789473684,4116,3666,-270.915789473684,83,0,1563,1771,485,4,4,4,4,4,4,4,4,4,4,4,4,4,4,4,4
"290",3967,-227.831578947368,3927,219.452631578947,66.0105263157895,3702,279.347368421053,3833,4065,-27.3157894736842,-231.936842105263,4121,3669,-267.315789473684,84,0,1559,1771,456,4,4,4,4,4,4,4,4,4,4,4,4,4,4,4,4
"291",3971,-228.347368421053,3928,229.2,73.7052631578947,3707,283.452631578947,3833,4069,-18.6,-231.936842105263,4121,3668,-266.294736842105,85,0,1559,1775,474,4,4,4,4,4,4,4,4,4,4,4,4,4,4,4,4
"292",3971,-226.294736842105,3928,235.347368421053,76.2736842105263,3713,287.547368421053,3834,4073,-13.9894736842105,-232.452631578947,4125,3665,-259.631578947368,86,0,1559,1771,499,4,4,4,4,4,4,4,4,4,4,4,4,4,4,4,4
"293",3974,-224.242105263158,3930,234.842105263158,75.2421052631579,3714,287.547368421053,3833,4077,-13.9894736842105,-231.421052631579,4129,3666,-256.042105263158,87,0,1559,1771,485,4,4,4,4,4,4,4,4,4,4,4,4,4,4,4,4
"294",3976,-225.778947368421,3928,234.326315789474,76.2736842105263,3710,286.526315789474,3833,4079,-14.5052631578947,-226.810526315789,4126,3669,-260.652631578947,88,0,1559,1771,456,4,4,4,4,4,4,4,4,4,4,4,4,4,4,4,4
"295",3976,-224.242105263158,3931,234.842105263158,77.2947368421053,3710,288.578947368421,3832,4079,-17.5789473684211,-225.273684210526,4121,3670,-264.242105263158,89,0,1559,1771,474,4,4,4,4,4,4,4,4,4,4,4,4,4,4,4,4
"296",3981,-217.063157894737,3937,237.915789473684,77.8105263157895,3714,292.168421052632,3829,4075,-19.6315789473684,-226.810526315789,4123,3671,-261.684210526316,90,0,1555,1775,499,4,4,4,4,4,4,4,4,4,4,4,4,4,4,4,4
"297",3987,-211.936842105263,3941,243.557894736842,79.3473684210526,3715,292.684210526316,3836,4072,-16.5473684210526,-225.273684210526,4125,3670,-259.631578947368,91,0,1559,1771,485,4,4,4,4,4,4,4,4,4,4,4,4,4,4,4,4
"298",3987,-212.452631578947,3941,249.2,80.8842105263158,3718,294.221052631579,3847,4073,-13.9894736842105,-224.757894736842,4126,3670,-259.631578947368,92,0,1559,1775,456,4,4,4,4,4,4,4,4,4,4,4,4,4,4,4,4
"299",3984,-212.452631578947,3939,248.684210526316,80.3684210526316,3723,299.347368421053,3845,4074,-13.9894736842105,-226.294736842105,4126,3671,-259.631578947368,93,0,1559,1771,474,4,4,4,4,4,4,4,4,4,4,4,4,4,4,4,4
"300",3982,-211.421052631579,3938,247.147368421053,80.3684210526316,3720,303.957894736842,3838,4074,-15.5263157894737,-226.294736842105,4124,3671,-260.136842105263,94,0,1555,1775,499,4,4,4,4,4,4,4,4,4,4,4,4,4,4,4,4
"301",3986,-211.936842105263,3942,249.2,79.8631578947368,3723,303.957894736842,3844,4074,-15.0105263157895,-227.315789473684,4129,3669,-257.063157894737,95,0,1563,1771,485,4,4,4,4,4,4,4,4,4,4,4,4,4,4,4,4
"302",3989,-210.4,3945,252.273684210526,80.8842105263158,3731,303.452631578947,3852,4076,-12.9578947368421,-228.347368421053,4137,3669,-253.473684210526,96,0,1555,1771,456,4,4,4,4,4,4,4,4,4,4,4,4,4,4,4,4
"303",3979,-213.989473684211,3942,249.715789473684,79.3473684210526,3724,305.494736842105,3845,4075,-17.5789473684211,-226.294736842105,4127,3668,-263.726315789474,97,0,1559,1775,474,4,4,4,4,4,4,4,4,4,4,4,4,4,4,4,4
"304",3970,-225.778947368421,3939,242.536842105263,71.1368421052632,3711,302.421052631579,3832,4073,-26.2947368421053,-226.810526315789,4105,3667,-281.684210526316,98,0,1559,1771,499,4,4,4,4,4,4,4,4,4,4,4,4,4,4,4,4
"305",3979,-224.757894736842,3940,243.557894736842,70.6315789473684,3715,301.905263157895,3835,4076,-23.2210526315789,-225.778947368421,4107,3671,-277.063157894737,99,0,1563,1775,485,4,4,4,4,4,4,4,4,4,4,4,4,4,4,4,4
"306",3991,-211.936842105263,3943,253.305263157895,76.7789473684211,3729,312.684210526316,3850,4086,-6.29473684210526,-218.094736842105,4127,3677,-256.547368421053,100,0,1559,1771,456,4,4,4,4,4,4,4,4,4,4,4,4,4,4,4,4
"307",3990,-210.915789473684,3942,253.810526315789,70.6315789473684,3728,318.315789473684,3853,4092,-1.16842105263158,-212.957894736842,4127,3676,-255.010526315789,101,0,1563,1775,474,4,4,4,4,4,4,4,4,4,4,4,4,4,4,4,4
"308",3984,-217.578947368421,3940,246.631578947368,59.8631578947368,3718,311.136842105263,3848,4088,-13.4736842105263,-213.473684210526,4113,3675,-267.315789473684,102,0,1563,1771,499,4,4,4,4,4,4,4,4,4,4,4,4,4,4,4,4
"309",3983,-217.063157894737,3941,247.663157894737,59.8631578947368,3722,309.084210526316,3851,4089,-16.5473684210526,-212.452631578947,4116,3676,-265.778947368421,103,0,1559,1775,485,4,4,4,4,4,4,4,4,4,4,4,4,4,4,4,4
"310",3989,-210.4,3942,253.305263157895,61.9052631578947,3729,318.831578947368,3843,4093,-9.36842105263158,-210.4,4127,3674,-256.547368421053,104,0,1567,1771,456,4,4,4,4,4,4,4,4,4,4,4,4,4,4,4,4
"311",3992,-212.957894736842,3942,250.736842105263,62.4210526315789,3724,321.905263157895,3820,4090,-12.4526315789474,-214.505263157895,4118,3676,-262.18947368421,105,0,1559,1771,474,4,4,4,4,4,4,4,4,4,4,4,4,4,4,4,4
"312",3989,-224.242105263158,3941,246.631578947368,64.4736842105263,3714,318.315789473684,3810,4082,-26.2947368421053,-215.010526315789,4105,3681,-274.505263157895,106,0,1563,1775,499,4,4,4,4,4,4,4,4,4,4,4,4,4,4,4,4
"313",3988,-224.757894736842,3941,249.2,63.9578947368421,3714,319.347368421053,3813,4081,-30.9157894736842,-215.526315789474,4104,3677,-279.115789473684,107,0,1563,1771,485,4,4,4,4,4,4,4,4,4,4,4,4,4,4,4,4
"314",3992,-212.452631578947,3942,257.915789473684,68.0631578947368,3723,322.421052631579,3817,4084,-23.7263157894737,-223.221052631579,4108,3674,-273.473684210526,108,0,1559,1775,456,4,4,4,4,4,4,4,4,4,4,4,4,4,4,4,4
"315",3993,-208.863157894737,3944,263.557894736842,78.8315789473684,3729,325.494736842105,3819,4082,-16.0421052631579,-225.778947368421,4112,3677,-262.705263157895,109,0,1559,1775,474,4,4,4,4,4,4,4,4,4,4,4,4,4,4,4,4
"316",3990,-219.115789473684,3943,259.452631578947,78.8315789473684,3723,324.473684210526,3819,4082,-20.6526315789474,-217.063157894737,4111,3674,-266.294736842105,110,0,1563,1775,499,4,4,4,4,4,4,4,4,4,4,4,4,4,4,4,4
"317",3988,-227.831578947368,3942,250.736842105263,66.5263157894737,3713,320.884210526316,3814,4088,-29.3684210526316,-211.936842105263,4104,3670,-281.168421052632,111,0,1563,1771,485,4,4,4,4,4,4,4,4,4,4,4,4,4,4,4,4
"318",3985,-228.347368421053,3937,249.2,63.4526315789474,3711,320.368421052632,3812,4093,-24.7578947368421,-212.452631578947,4101,3674,-282.705263157895,112,0,1559,1779,456,4,4,4,4,4,4,4,4,4,4,4,4,4,4,4,4
"319",3980,-228.347368421053,3932,249.715789473684,65.4947368421053,3711,320.884210526316,3813,4093,-17.5789473684211,-212.452631578947,4103,3675,-275.526315789474,113,0,1563,1775,474,4,4,4,4,4,4,4,4,4,4,4,4,4,4,4,4
"320",3975,-229.368421052632,3937,247.147368421053,62.9368421052632,3709,320.368421052632,3812,4089,-17.0631578947368,-216.042105263158,4104,3673,-276.547368421053,114,0,1559,1775,499,4,4,4,4,4,4,4,4,4,4,4,4,4,4,4,4
"321",3978,-228.863157894737,3942,246.631578947368,68.5789473684211,3713,321.4,3814,4089,-15.5263157894737,-215.010526315789,4109,3675,-275.010526315789,115,0,1559,1775,485,4,4,4,4,4,4,4,4,4,4,4,4,4,4,4,4
"322",3984,-226.810526315789,3944,249.715789473684,77.8105263157895,3716,322.936842105263,3817,4090,-14.5052631578947,-212.452631578947,4111,3673,-272.452631578947,116,0,1559,1775,456,4,4,4,4,4,4,4,4,4,4,4,4,4,4,4,4
"323",3987,-228.347368421053,3954,251.757894736842,76.2736842105263,3713,321.905263157895,3815,4085,-19.1157894736842,-223.221052631579,4101,3667,-277.063157894737,117,0,1559,1775,474,4,4,4,4,4,4,4,4,4,4,4,4,4,4,4,4
"324",3988,-227.315789473684,3962,252.273684210526,73.7052631578947,3715,321.4,3814,4082,-24.7578947368421,-230.915789473684,4099,3669,-277.063157894737,118,0,1555,1775,499,4,4,4,4,4,4,4,4,4,4,4,4,4,4,4,4
"325",3989,-224.757894736842,3958,251.252631578947,77.2947368421053,3717,323.452631578947,3817,4081,-27.8315789473684,-227.831578947368,4105,3671,-271.936842105263,119,0,1559,1775,485,4,4,4,4,4,4,4,4,4,4,4,4,4,4,4,4
"326",3991,-224.242105263158,3956,253.810526315789,79.3473684210526,3716,322.936842105263,3817,4081,-32.4526315789474,-228.863157894737,4098,3667,-277.578947368421,120,0,1559,1771,456,4,4,4,4,4,4,4,4,4,4,4,4,4,4,4,4
"327",3988,-225.273684210526,3959,253.305263157895,76.7789473684211,3715,320.884210526316,3815,4086,-35.0105263157895,-227.831578947368,4088,3667,-291.421052631579,121,0,1555,1779,474,4,4,4,4,4,4,4,4,4,4,4,4,4,4,4,4
"328",3978,-227.315789473684,3956,247.147368421053,68.5789473684211,3712,319.863157894737,3816,4094,-28.3473684210526,-214.505263157895,4093,3670,-288.863157894737,122,0,1563,1771,499,4,4,4,4,4,4,4,4,4,4,4,4,4,4,4,4
"329",3970,-229.884210526316,3948,241.505263157895,60.8842105263158,3706,314.726315789474,3813,4093,-21.1684210526316,-212.452631578947,4103,3668,-277.578947368421,123,0,1559,1771,485,4,4,4,4,4,4,4,4,4,4,4,4,4,4,4,4
"330",3974,-229.368421052632,3944,242.021052631579,66.0105263157895,3707,308.063157894737,3815,4090,-17.0631578947368,-225.778947368421,4103,3663,-275.526315789474,124,0,1559,1775,456,4,4,4,4,4,4,4,4,4,4,4,4,4,4,4,4
"331",3984,-225.778947368421,3952,247.147368421053,73.1894736842105,3715,310.115789473684,3829,4091,-5.77894736842105,-228.863157894737,4111,3665,-276.042105263158,125,0,1559,1775,474,4,4,4,4,4,4,4,4,4,4,4,4,4,4,4,4
"332",3988,-225.273684210526,3959,251.252631578947,75.2421052631579,3716,317.810526315789,3836,4095,1.4,-222.705263157895,4124,3667,-273.473684210526,126,0,1563,1771,499,4,4,4,4,4,4,4,4,4,4,4,4,4,4,4,4
"333",3988,-227.831578947368,3957,249.715789473684,75.2421052631579,3705,319.863157894737,3830,4090,-11.9368421052632,-226.810526315789,4119,3666,-275.526315789474,127,0,1559,1775,485,4,4,4,4,4,4,4,4,4,4,4,4,4,4,4,4
"334",3990,-229.368421052632,3957,246.631578947368,76.7789473684211,3697,318.831578947368,3824,4083,-24.7578947368421,-230.4,4104,3666,-280.652631578947,128,0,1563,1771,456,4,4,4,4,4,4,4,4,4,4,4,4,4,4,4,4
"335",3994,-228.863157894737,3958,247.663157894737,83.4526315789474,3701,323.452631578947,3828,4086,-20.6526315789474,-220.136842105263,4105,3671,-279.115789473684,0,0,1559,1775,477,4,4,4,4,4,4,4,4,4,4,4,4,4,4,4,4
"336",3999,-227.315789473684,3957,249.715789473684,90.6315789473684,3708,328.063157894737,3833,4092,-18.0947368421053,-211.936842105263,4113,3675,-275.526315789474,1,0,1559,1775,448,4,4,4,4,4,4,4,4,4,4,4,4,4,4,4,4
"337",4000,-227.315789473684,3955,249.715789473684,87.5473684210526,3707,326.010526315789,3833,4089,-22.7052631578947,-213.473684210526,4109,3675,-276.547368421053,2,0,1559,1775,494,4,4,4,4,4,4,4,4,4,4,4,4,4,4,4,4
"338",3999,-227.831578947368,3956,247.663157894737,81.4,3701,323.452631578947,3830,4094,-18.0947368421053,-204.242105263158,4104,3679,-279.115789473684,3,0,1559,1771,503,4,4,4,4,4,4,4,4,4,4,4,4,4,4,4,4
"339",3999,-228.863157894737,3957,246.126315789474,80.3684210526316,3699,322.936842105263,3830,4106,-7.83157894736842,-196.547368421053,4104,3681,-279.115789473684,4,0,1555,1775,496,4,4,4,4,4,4,4,4,4,4,4,4,4,4,4,4
"340",3997,-230.4,3954,248.684210526316,79.3473684210526,3702,317.810526315789,3835,4101,4.98947368421053,-209.368421052632,4106,3673,-277.063157894737,5,0,1559,1771,506,4,4,4,4,4,4,4,4,4,4,4,4,4,4,4,4
"341",4012,-211.421052631579,3971,268.684210526316,92.6842105263158,3719,329.084210526316,3851,4109,39.8631578947368,-203.726315789474,4125,3681,-259.631578947368,6,0,1559,1767,495,4,4,4,4,4,4,4,4,4,4,4,4,4,4,4,4
"342",4050,-171.421052631579,4006,304.578947368421,130.115789473684,3759,-328.452631578947,3888,4139,90.1157894736842,-166.810526315789,4165,3713,-221.684210526316,7,0,1559,1775,413,4,4,4,4,4,4,4,4,4,4,4,4,4,4,4,4
"343",4073,-150.4,4022,326.126315789474,152.684210526316,3786,-311.536842105263,3916,4149,112.684210526316,-148.863157894737,4192,3727,-201.684210526316,8,0,1559,1771,456,4,4,4,4,4,4,4,4,4,4,4,4,4,4,4,4
"344",4066,-158.094736842105,4014,323.557894736842,145.494736842105,3782,-318.2,3911,4146,108.063157894737,-155.526315789474,4187,3717,-207.831578947368,9,0,1563,1771,455,4,4,4,4,4,4,4,4,4,4,4,4,4,4,4,4
"345",4054,-164.242105263158,4010,316.378947368421,139.863157894737,3774,-322.305263157895,3896,4152,110.115789473684,-158.6,4183,3714,-211.421052631579,10,0,1555,1771,499,4,4,4,4,4,4,4,4,4,4,4,4,4,4,4,4
"346",4055,-162.189473684211,4009,316.378947368421,144.473684210526,3775,-318.715789473684,3895,4149,110.631578947368,-159.115789473684,4187,3720,-205.273684210526,11,0,1555,1775,485,4,4,4,4,4,4,4,4,4,4,4,4,4,4,4,4
"347",4053,-164.757894736842,4003,313.305263157895,139.863157894737,3770,-320.252631578947,3894,4134,96.778947368421,-163.726315789474,4177,3718,-206.294736842105,12,0,1559,1767,456,4,4,4,4,4,4,4,4,4,4,4,4,4,4,4,4
"348",4049,-168.347368421053,4001,305.610526315789,134.726315789474,3766,-323.842105263158,3891,4134,90.1157894736842,-165.778947368421,4166,3714,-213.473684210526,13,0,1555,1775,474,4,4,4,4,4,4,4,4,4,4,4,4,4,4,4,4
"349",4054,-165.273684210526,4008,306.631578947368,140.368421052632,3769,-324.863157894737,3891,4136,91.1368421052632,-166.294736842105,4168,3719,-215.526315789474,14,0,1559,1775,499,4,4,4,4,4,4,4,4,4,4,4,4,4,4,4,4
"350",4062,-163.221052631579,4014,312.273684210526,143.957894736842,3770,-325.378947368421,3893,4129,81.9052631578947,-166.294736842105,4165,3724,-217.063157894737,15,0,1555,1771,485,4,4,4,4,4,4,4,4,4,4,4,4,4,4,4,4
"351",4065,-164.242105263158,4016,316.894736842105,141.4,3771,-325.378947368421,3895,4132,77.2947368421053,-164.757894736842,4158,3720,-217.063157894737,16,0,1559,1775,0,4,4,4,4,4,4,4,4,4,4,4,4,4,4,4,4
"352",4063,-162.189473684211,4018,319.452631578947,140.884210526316,3774,-322.810526315789,3897,4143,87.0421052631579,-163.726315789474,4163,3713,-216.042105263158,17,0,1555,1775,0,4,4,4,4,4,4,4,4,4,4,4,4,4,4,4,4
"353",4062,-166.294736842105,4019,316.894736842105,138.315789473684,3771,-325.378947368421,3895,4145,85.4947368421053,-162.705263157895,4162,3707,-221.168421052632,18,0,1559,1775,0,4,4,4,4,4,4,4,4,4,4,4,4,4,4,4,4
"354",4059,-176.042105263158,4014,311.252631578947,131.136842105263,3761,-334.610526315789,3893,4142,73.1894736842105,-164.757894736842,4149,3703,-233.473684210526,19,0,1555,1775,0,4,4,4,4,4,4,4,4,4,4,4,4,4,4,4,4
"355",4058,-174.505263157895,4014,310.221052631579,127.042105263158,3758,-333.578947368421,3893,4150,80.3684210526316,-162.189473684211,4151,3708,-235.010526315789,20,0,1559,1779,0,4,4,4,4,4,4,4,4,4,4,4,4,4,4,4,4
"356",4059,-170.4,4022,310.736842105263,126.526315789474,3767,-326.915789473684,3892,4157,96.778947368421,-155.526315789474,4166,3710,-222.189473684211,21,0,1559,1775,0,4,4,4,4,4,4,4,4,4,4,4,4,4,4,4,4
"357",4059,-169.884210526316,4021,312.273684210526,127.042105263158,3771,-328.452631578947,3898,4151,96.778947368421,-158.6,4173,3705,-210.4,22,0,1555,1779,0,4,4,4,4,4,4,4,4,4,4,4,4,4,4,4,4
"358",4059,-168.863157894737,4016,317.915789473684,131.652631578947,3770,-332.557894736842,3908,4141,93.7052631578947,-166.810526315789,4170,3708,-210.4,23,0,1559,1775,0,4,4,4,4,4,4,4,4,4,4,4,4,4,4,4,4
"359",4062,-172.957894736842,4018,319.452631578947,134.726315789474,3770,-321.273684210526,3908,4137,94.7263157894737,-164.757894736842,4168,3715,-217.063157894737,24,0,1559,1775,0,4,4,4,4,4,4,4,4,4,4,4,4,4,4,4,4
"360",4068,-179.115789473684,4024,317.915789473684,132.684210526316,3770,-291.536842105263,3908,4136,93.7052631578947,-162.189473684211,4171,3713,-212.957894736842,25,0,1559,1775,0,4,4,4,4,4,4,4,4,4,4,4,4,4,4,4,4
"361",4069,-179.631578947368,4021,315.863157894737,130.115789473684,3766,-271.021052631579,3909,4127,84.4736842105263,-174.505263157895,4165,3710,-212.452631578947,26,0,1559,1775,0,4,4,4,4,4,4,4,4,4,4,4,4,4,4,4,4
"362",4062,-188.863157894737,4005,306.631578947368,126.526315789474,3752,-274.094736842105,3900,4118,68.0631578947368,-182.189473684211,4144,3711,-234.505263157895,27,0,1559,1775,0,4,4,4,4,4,4,4,4,4,4,4,4,4,4,4,4
"363",4056,-207.831578947368,3993,300.484210526316,124.473684210526,3738,-279.736842105263,3891,4118,57.8105263157895,-175.010526315789,4132,3710,-249.884210526316,28,0,1555,1775,0,4,4,4,4,4,4,4,4,4,4,4,4,4,4,4,4
"364",4058,-213.989473684211,3997,302.536842105263,124.989473684211,3736,-274.094736842105,3894,4122,59.8631578947368,-168.863157894737,4134,3707,-245.778947368421,29,0,1559,1775,0,4,4,4,4,4,4,4,4,4,4,4,4,4,4,4,4
"365",4061,-212.452631578947,4003,302.536842105263,123.452631578947,3739,-273.578947368421,3895,4127,61.4,-170.915789473684,4136,3703,-242.189473684211,30,0,1563,1771,0,4,4,4,4,4,4,4,4,4,4,4,4,4,4,4,4
"366",4061,-213.989473684211,4001,302.021052631579,122.936842105263,3738,-277.168421052632,3893,4135,59.3473684210526,-173.989473684211,4133,3700,-243.726315789474,31,0,1559,1775,0,4,4,4,4,4,4,4,4,4,4,4,4,4,4,4,4
"367",4059,-221.168421052632,4002,301.505263157895,123.957894736842,3737,-275.126315789474,3894,4136,58.3157894736842,-171.936842105263,4130,3699,-247.315789473684,32,0,1563,1775,0,4,4,4,4,4,4,4,4,4,4,4,4,4,4,4,4
"368",4061,-227.315789473684,4004,303.042105263158,125.494736842105,3738,-271.536842105263,3897,4138,60.8842105263158,-165.273684210526,4131,3700,-245.778947368421,33,0,1559,1775,0,4,4,4,4,4,4,4,4,4,4,4,4,4,4,4,4
"369",4064,-225.778947368421,4004,307.663157894737,126.526315789474,3739,-273.073684210526,3897,4146,69.6,-160.652631578947,4142,3702,-235.010526315789,34,0,1559,1775,0,4,4,4,4,4,4,4,4,4,4,4,4,4,4,4,4
"370",4064,-223.221052631579,4002,307.147368421053,127.042105263158,3743,-275.631578947368,3899,4144,75.7578947368421,-164.242105263158,4147,3702,-228.347368421053,35,0,1559,1779,0,4,4,4,4,4,4,4,4,4,4,4,4,4,4,4,4
"371",4069,-215.010526315789,4006,309.715789473684,134.726315789474,3751,-267.947368421053,3908,4137,76.2736842105263,-168.863157894737,4151,3702,-221.684210526316,36,0,1559,1775,0,4,4,4,4,4,4,4,4,4,4,4,4,4,4,4,4
"372",4078,-207.831578947368,4012,317.915789473684,143.452631578947,3756,-258.2,3915,4137,79.3473684210526,-167.831578947368,4160,3707,-216.042105263158,37,0,1559,1779,0,4,4,4,4,4,4,4,4,4,4,4,4,4,4,4,4
"373",4075,-217.578947368421,4009,313.305263157895,140.884210526316,3755,-261.789473684211,3912,4134,77.8105263157895,-173.473684210526,4154,3714,-225.273684210526,38,0,1559,1775,0,4,4,4,4,4,4,4,4,4,4,4,4,4,4,4,4
"374",4067,-224.242105263158,4007,302.536842105263,138.831578947368,3752,-264.863157894737,3908,4124,71.1368421052632,-181.168421052632,4142,3713,-233.473684210526,39,0,1559,1779,0,4,4,4,4,4,4,4,4,4,4,4,4,4,4,4,4
"375",4073,-215.526315789474,4015,306.631578947368,142.421052631579,3754,-258.715789473684,3910,4125,74.2210526315789,-174.505263157895,4148,3712,-225.273684210526,40,0,1559,1775,0,4,4,4,4,4,4,4,4,4,4,4,4,4,4,4,4
"376",4081,-210.915789473684,4023,315.347368421053,144.473684210526,3757,-264.357894736842,3913,4131,78.8315789473684,-166.294736842105,4158,3713,-221.168421052632,41,0,1559,1779,0,4,4,4,4,4,4,4,4,4,4,4,4,4,4,4,4
"377",4074,-213.989473684211,4021,312.789473684211,140.368421052632,3755,-275.126315789474,3912,4134,69.6,-168.863157894737,4151,3711,-227.831578947368,42,0,1563,1775,0,4,4,4,4,4,4,4,4,4,4,4,4,4,4,4,4
"378",4067,-219.631578947368,4016,308.168421052632,131.652631578947,3750,-276.663157894737,3909,4137,62.4210526315789,-167.831578947368,4142,3709,-227.831578947368,43,0,1555,1775,0,4,4,4,4,4,4,4,4,4,4,4,4,4,4,4,4
"379",4064,-227.831578947368,4014,303.557894736842,126.010526315789,3745,-283.842105263158,3907,4138,63.9578947368421,-161.684210526316,4141,3708,-227.315789473684,44,0,1559,1775,0,4,4,4,4,4,4,4,4,4,4,4,4,4,4,4,4
"380",4063,-227.315789473684,4011,300.484210526316,133.189473684211,3746,-288.968421052632,3908,4136,62.9368421052632,-163.726315789474,4139,3709,-229.884210526316,45,0,1559,1771,0,4,4,4,4,4,4,4,4,4,4,4,4,4,4,4,4
"381",4070,-213.989473684211,4015,304.578947368421,141.905263157895,3751,-279.221052631579,3911,4144,60.8842105263158,-166.810526315789,4139,3710,-228.863157894737,46,0,1559,1771,0,4,4,4,4,4,4,4,4,4,4,4,4,4,4,4,4
"382",4076,-210.915789473684,4021,305.610526315789,140.368421052632,3750,-275.126315789474,3910,4153,63.9578947368421,-166.294736842105,4139,3708,-233.989473684211,47,0,1555,1771,0,4,4,4,4,4,4,4,4,4,4,4,4,4,4,4,4
"383",4070,-222.705263157895,4017,298.431578947368,139.863157894737,3743,-279.221052631579,3899,4145,61.4,-170.915789473684,4130,3706,-245.778947368421,48,0,1563,1771,0,4,4,4,4,4,4,4,4,4,4,4,4,4,4,4,4
"384",4065,-228.347368421053,4012,293.305263157895,142.421052631579,3737,-275.631578947368,3883,4134,49.6,-176.547368421053,4120,3708,-248.863157894737,49,0,1559,1771,0,4,4,4,4,4,4,4,4,4,4,4,4,4,4,4,4
"385",4069,-223.726315789474,4014,293.305263157895,142.936842105263,3738,-272.042105263158,3879,4132,47.0421052631579,-179.631578947368,4123,3708,-242.705263157895,50,0,1559,1775,0,4,4,4,4,4,4,4,4,4,4,4,4,4,4,4,4
"386",4071,-224.757894736842,4014,291.252631578947,143.452631578947,3738,-274.094736842105,3888,4126,49.0842105263158,-182.705263157895,4125,3702,-244.757894736842,51,0,1563,1767,0,4,4,4,4,4,4,4,4,4,4,4,4,4,4,4,4
"387",4068,-224.757894736842,4011,288.684210526316,144.473684210526,3740,-274.610526315789,3893,4117,46.0105263157895,-181.168421052632,4119,3697,-247.315789473684,52,0,1555,1775,0,4,4,4,4,4,4,4,4,4,4,4,4,4,4,4,4
"388",4070,-214.505263157895,4013,289.2,142.936842105263,3744,-273.073684210526,3892,4117,44.4736842105263,-181.168421052632,4123,3698,-241.684210526316,53,0,1563,1775,0,4,4,4,4,4,4,4,4,4,4,4,4,4,4,4,4
"389",4069,-211.936842105263,4013,290.221052631579,139.863157894737,3745,-274.094736842105,3893,4121,47.0421052631579,-190.915789473684,4126,3698,-243.726315789474,54,0,1559,1775,0,4,4,4,4,4,4,4,4,4,4,4,4,4,4,4,4
"390",4062,-218.6,4011,288.684210526316,137.294736842105,3744,-276.663157894737,3893,4123,45.4947368421053,-196.547368421053,4123,3698,-247.831578947368,55,0,1559,1775,0,4,4,4,4,4,4,4,4,4,4,4,4,4,4,4,4
"391",4058,-219.115789473684,4012,285.610526315789,137.294736842105,3743,-278.2,3893,4125,46.0105263157895,-187.831578947368,4131,3697,-239.631578947368,56,0,1559,1775,0,4,4,4,4,4,4,4,4,4,4,4,4,4,4,4,4
"392",4053,-227.315789473684,4000,276.378947368421,130.115789473684,3735,-284.357894736842,3889,4125,42.9368421052632,-185.778947368421,4131,3693,-242.705263157895,57,0,1563,1779,0,4,4,4,4,4,4,4,4,4,4,4,4,4,4,4,4
"393",4036,-251.936842105263,3974,253.810526315789,112.168421052632,3711,-296.663157894737,3866,4116,27.5473684210526,-200.136842105263,4103,3679,-266.810526315789,58,0,1559,1771,0,4,4,4,4,4,4,4,4,4,4,4,4,4,4,4,4
"394",4047,-242.189473684211,3984,257.4,126.526315789474,3721,-285.378947368421,3868,4127,37.8105263157895,-182.705263157895,4106,3684,-259.631578947368,59,0,1559,1779,0,4,4,4,4,4,4,4,4,4,4,4,4,4,4,4,4
"395",4056,-228.863157894737,3999,265.610526315789,137.294736842105,3733,-280.768421052632,3883,4132,44.9894736842105,-167.831578947368,4119,3691,-249.884210526316,60,0,1559,1771,0,4,4,4,4,4,4,4,4,4,4,4,4,4,4,4,4
"396",4037,-247.831578947368,3983,243.042105263158,116.273684210526,3713,-300.768421052632,3864,4107,19.3473684210526,-193.473684210526,4092,3677,-275.526315789474,61,0,1555,1775,0,4,4,4,4,4,4,4,4,4,4,4,4,4,4,4,4
"397",4168,-111.936842105263,4103,-320.136842105263,245.494736842105,3850,-181.273684210526,3987,4222,137.294736842105,-83.2210526315789,4221,3786,-141.684210526316,62,0,1559,1775,0,4,4,4,4,4,4,4,4,4,4,4,4,4,4,4,4
"398",4452,183.957894736842,4363,-28.8631578947368,-171.021052631579,4154,68.4631578947368,4284,4474,-278.715789473684,180.368421052632,4532,4021,162.936842105263,63,0,1559,1775,0,4,4,4,4,4,4,4,4,4,4,4,4,4,4,4,4
"399",4588,329.084210526316,4485,117.294736842105,-50.5052631578947,4303,183.852631578947,4442,4584,-145.894736842105,307.547368421053,4692,4133,315.757894736842,64,0,1559,1771,476,4,4,4,4,4,4,4,4,4,4,4,4,4,4,4,4
"400",4540,280.884210526316,4438,63.9578947368421,-102.305263157895,4250,142.831578947368,4391,4527,-197.168421052632,252.684210526316,4643,4086,269.6,65,0,1555,1771,444,4,4,4,4,4,4,4,4,4,4,4,4,4,4,4,4
"401",4525,262.421052631579,4422,39.3473684210526,-115.126315789474,4231,127.442105263158,4367,4507,-212.557894736842,229.6,4621,4067,250.631578947368,66,0,1559,1771,489,4,4,4,4,4,4,4,4,4,4,4,4,4,4,4,4
"402",4535,275.242105263158,4431,54.7263157894737,-103.842105263158,4247,138.726315789474,4386,4518,-195.126315789474,247.547368421053,4637,4085,265.494736842105,67,0,1555,1771,503,4,4,4,4,4,4,4,4,4,4,4,4,4,4,4,4
"403",4502,242.421052631579,4404,23.9578947368421,-137.168421052632,4216,114.621052631579,4361,4496,-224.863157894737,228.578947368421,4611,4063,238.315789473684,68,0,1555,1775,496,4,4,4,4,4,4,4,4,4,4,4,4,4,4,4,4
"404",4483,221.4,4388,0.884210526315789,-159.736842105263,4197,95.1368421052632,4344,4486,-244.863157894737,209.6,4593,4038,219.347368421053,69,0,1559,1771,501,4,4,4,4,4,4,4,4,4,4,4,4,4,4,4,4
"405",4472,212.168421052632,4377,-12.9578947368421,-172.042105263158,4186,85.9052631578947,4333,4478,-257.168421052632,198.315789473684,4577,4024,203.452631578947,70,0,1555,1775,495,4,4,4,4,4,4,4,4,4,4,4,4,4,4,4,4
"406",4452,195.242105263158,4364,-31.9368421052632,-186.915789473684,4167,70.0105263157895,4313,4474,-277.684210526316,191.136842105263,4554,4014,184.989473684211,71,0,1555,1771,413,4,4,4,4,4,4,4,4,4,4,4,4,4,4,4,4
"407",4449,189.6,4366,-33.9894736842105,-192.042105263158,4164,50.5157894736842,4310,4482,-277.684210526316,186.010526315789,4554,4009,187.042105263158,72,0,1559,1775,454,4,4,4,4,4,4,4,4,4,4,4,4,4,4,4,4
"408",4448,187.547368421053,4364,-35.5263157894737,-203.842105263158,4158,31.0315789473684,4307,4477,-275.126315789474,164.989473684211,4553,4001,182.936842105263,73,0,1559,1771,455,4,4,4,4,4,4,4,4,4,4,4,4,4,4,4,4
"409",4436,179.863157894737,4354,-48.3473684210526,-211.021052631579,4150,21.2842105263158,4298,4462,-288.968421052632,151.652631578947,4538,3996,165.494736842105,74,0,1559,1771,497,4,4,4,4,4,4,4,4,4,4,4,4,4,4,4,4
"410",4427,170.631578947368,4345,-56.0421052631579,-212.042105263158,4149,16.6736842105263,4294,4450,-301.789473684211,152.684210526316,4527,3991,155.757894736842,75,0,1559,1771,484,4,4,4,4,4,4,4,4,4,4,4,4,4,4,4,4
"411",4421,162.421052631579,4342,-61.1684210526316,-218.715789473684,4141,12.0526315789474,4291,4441,-309.989473684211,147.547368421053,4523,3988,156.273684210526,76,0,1559,1771,454,4,4,4,4,4,4,4,4,4,4,4,4,4,4,4,4
"412",4410,149.6,4330,-78.0947368421053,-225.894736842105,4124,7.44210526315789,4279,4425,-325.894736842105,137.810526315789,4512,3998,145.494736842105,77,0,1559,1771,471,4,4,4,4,4,4,4,4,4,4,4,4,4,4,4,4
"413",4399,138.831578947368,4314,-92.9578947368421,-231.536842105263,4116,-2.30526315789474,4266,4411,-344.357894736842,132.684210526316,4493,4016,122.421052631579,78,0,1559,1775,497,4,4,4,4,4,4,4,4,4,4,4,4,4,4,4,4
"414",4390,131.136842105263,4309,-99.1157894736842,-239.221052631579,4107,-10.5052631578947,4255,4409,333.705263157895,127.547368421053,4478,4013,104.989473684211,79,0,1559,1767,484,4,4,4,4,4,4,4,4,4,4,4,4,4,4,4,4
"415",4383,123.452631578947,4305,-108.863157894737,-245.378947368421,4092,-17.6842105263158,4246,4406,331.136842105263,124.473684210526,4471,3996,102.936842105263,80,0,1559,1775,454,4,4,4,4,4,4,4,4,4,4,4,4,4,4,4,4
"416",4379,119.863157894737,4297,-113.473684210526,-249.989473684211,4089,-20.2526315789474,4247,4405,334.726315789474,124.989473684211,4472,3990,109.084210526316,81,0,1563,1771,471,4,4,4,4,4,4,4,4,4,4,4,4,4,4,4,4
"417",4374,116.778947368421,4295,-112.957894736842,-256.663157894737,4092,-19.7368421052632,4248,4411,336.778947368421,118.831578947368,4474,3990,112.684210526316,82,0,1559,1771,497,4,4,4,4,4,4,4,4,4,4,4,4,4,4,4,4
"418",4372,110.631578947368,4299,-116.042105263158,-260.252631578947,4091,-25.3789473684211,4248,4412,335.757894736842,108.063157894737,4473,3985,106.526315789474,83,0,1563,1771,484,4,4,4,4,4,4,4,4,4,4,4,4,4,4,4,4
"419",4373,109.084210526316,4298,-116.547368421053,-259.221052631579,4090,-32.5578947368421,4249,4410,340.884210526316,104.473684210526,4472,3980,102.421052631579,84,0,1559,1771,454,4,4,4,4,4,4,4,4,4,4,4,4,4,4,4,4
"420",4371,112.168421052632,4296,-113.989473684211,-261.789473684211,4091,-32.5578947368421,4248,4413,-341.789473684211,109.084210526316,4474,3978,108.063157894737,85,0,1559,1771,471,4,4,4,4,4,4,4,4,4,4,4,4,4,4,4,4
"421",4370,118.831578947368,4297,-111.936842105263,-261.789473684211,4093,-23.3263157894737,4257,4413,-338.2,111.652631578947,4476,3976,111.652631578947,86,0,1559,1771,497,4,4,4,4,4,4,4,4,4,4,4,4,4,4,4,4
"422",4374,124.473684210526,4298,-106.294736842105,-256.663157894737,4098,-13.5789473684211,4268,4406,-334.610526315789,102.936842105263,4481,3973,112.168421052632,87,0,1563,1771,484,4,4,4,4,4,4,4,4,4,4,4,4,4,4,4,4
"423",4374,118.315789473684,4297,-111.936842105263,-255.126315789474,4096,-12.5578947368421,4259,4397,-339.736842105263,93.1894736842105,4476,3974,110.631578947368,88,0,1559,1771,454,4,4,4,4,4,4,4,4,4,4,4,4,4,4,4,4
"424",4365,103.957894736842,4290,-127.831578947368,-259.221052631579,4085,-19.7368421052632,4246,4387,333.705263157895,93.7052631578947,4463,3975,102.421052631579,89,0,1559,1775,471,4,4,4,4,4,4,4,4,4,4,4,4,4,4,4,4
"425",4357,95.2421052631579,4282,-135.010526315789,-268.452631578947,4076,-27.4315789473684,4247,4384,322.936842105263,96.2736842105263,4452,3971,87.0421052631579,90,0,1563,1771,497,4,4,4,4,4,4,4,4,4,4,4,4,4,4,4,4
"426",4353,93.1894736842105,4279,-138.6,-273.578947368421,4072,-31.0210526315789,4243,4385,318.315789473684,93.7052631578947,4445,3964,79.3473684210526,91,0,1555,1775,484,4,4,4,4,4,4,4,4,4,4,4,4,4,4,4,4
"427",4351,89.6,4279,-149.368421052632,-273.073684210526,4066,-31.0210526315789,4230,4384,307.547368421053,91.1368421052632,4434,3960,75.7578947368421,92,0,1563,1775,454,4,4,4,4,4,4,4,4,4,4,4,4,4,4,4,4
"428",4345,81.4,4278,-155.010526315789,-274.610526315789,4057,-33.0736842105263,4227,4379,297.294736842105,83.9578947368421,4423,3955,66.5263157894737,93,0,1559,1775,471,4,4,4,4,4,4,4,4,4,4,4,4,4,4,4,4
"429",4341,79.3473684210526,4277,-150.915789473684,-277.168421052632,4056,-39.7368421052632,4232,4381,299.863157894737,78.3157894736842,4427,3952,63.4526315789474,94,0,1559,1775,497,4,4,4,4,4,4,4,4,4,4,4,4,4,4,4,4
"430",4343,90.1157894736842,4276,-145.778947368421,-277.684210526316,4071,-41.7894736842105,4234,4388,314.221052631579,80.8842105263158,4444,3957,76.2736842105263,95,0,1559,1775,484,4,4,4,4,4,4,4,4,4,4,4,4,4,4,4,4
"431",4342,93.1894736842105,4270,-148.347368421053,-281.273684210526,4077,-43.8421052631579,4236,4386,321.905263157895,79.3473684210526,4446,3955,84.4736842105263,96,0,1563,1775,454,4,4,4,4,4,4,4,4,4,4,4,4,4,4,4,4
"432",4332,81.4,4262,-159.115789473684,-288.968421052632,4065,-47.9473684210526,4232,4376,311.652631578947,76.2736842105263,4431,3944,73.7052631578947,97,0,1559,1771,471,4,4,4,4,4,4,4,4,4,4,4,4,4,4,4,4
"433",4325,71.1368421052632,4259,-165.273684210526,-293.073684210526,4057,-52.5578947368421,4222,4374,304.473684210526,74.2210526315789,4427,3942,63.4526315789474,98,0,1559,1775,497,4,4,4,4,4,4,4,4,4,4,4,4,4,4,4,4
"434",4325,64.9894736842105,4257,-165.273684210526,-293.578947368421,4056,-59.2210526315789,4216,4370,306.010526315789,66.5263157894737,4424,3945,62.9368421052632,99,0,1559,1775,484,4,4,4,4,4,4,4,4,4,4,4,4,4,4,4,4
"435",4325,61.4,4256,-171.421052631579,-293.578947368421,4051,-58.2,4216,4357,304.473684210526,58.8315789473684,4414,3941,61.9052631578947,100,0,1559,1775,454,4,4,4,4,4,4,4,4,4,4,4,4,4,4,4,4
"436",4329,63.4526315789474,4263,-172.452631578947,-290.505263157895,4051,-52.5578947368421,4216,4354,303.452631578947,63.4526315789474,4414,3942,60.8842105263158,101,0,1559,1775,471,4,4,4,4,4,4,4,4,4,4,4,4,4,4,4,4
"437",4334,66.0105263157895,4267,-165.778947368421,-290.505263157895,4053,-57.1684210526316,4218,4359,303.452631578947,62.4210526315789,4417,3943,59.8631578947368,102,0,1559,1779,497,4,4,4,4,4,4,4,4,4,4,4,4,4,4,4,4
"438",4337,63.4526315789474,4264,-171.421052631579,-300.768421052632,4046,-65.3789473684211,4215,4356,291.652631578947,50.1157894736842,4406,3931,48.0631578947368,103,0,1559,1775,484,4,4,4,4,4,4,4,4,4,4,4,4,4,4,4,4
"439",4334,62.4210526315789,4261,-181.168421052632,-306.915789473684,4038,-62.3052631578947,4206,4348,280.368421052632,43.4526315789474,4390,3925,32.6842105263158,104,0,1559,1775,454,4,4,4,4,4,4,4,4,4,4,4,4,4,4,4,4
"440",4330,60.3684210526316,4255,-181.684210526316,-305.378947368421,4029,-64.8631578947368,4196,4343,271.136842105263,43.9578947368421,4379,3928,26.0105263157895,105,0,1563,1779,471,4,4,4,4,4,4,4,4,4,4,4,4,4,4,4,4
"441",4324,51.6526315789474,4249,-189.368421052632,-309.484210526316,4018,-76.6631578947368,4188,4340,258.831578947368,42.9368421052632,4372,3926,19.8631578947368,106,0,1559,1775,497,4,4,4,4,4,4,4,4,4,4,4,4,4,4,4,4
"442",4317,44.9894736842105,4248,-198.094736842105,-320.252631578947,4019,-80.2526315789474,4185,4341,261.905263157895,42.4210526315789,4373,3923,14.7263157894737,107,0,1559,1779,484,4,4,4,4,4,4,4,4,4,4,4,4,4,4,4,4
"443",4311,44.4736842105263,4248,-198.6,-325.378947368421,4018,-77.6842105263158,4186,4341,270.631578947368,43.4526315789474,4381,3924,15.7578947368421,108,0,1559,1775,454,4,4,4,4,4,4,4,4,4,4,4,4,4,4,4,4
"444",4308,42.9368421052632,4246,-205.778947368421,-321.789473684211,4008,-77.1684210526316,4185,4340,266.010526315789,45.4947368421053,4376,3917,15.7578947368421,109,0,1559,1775,471,4,4,4,4,4,4,4,4,4,4,4,4,4,4,4,4
"445",4310,40.8842105263158,4247,-211.936842105263,-324.863157894737,4005,-84.3578947368421,4183,4338,264.473684210526,41.9052631578947,4373,3909,13.7052631578947,110,0,1559,1775,497,4,4,4,4,4,4,4,4,4,4,4,4,4,4,4,4
"446",4307,43.4526315789474,4246,-206.294736842105,-338.2,4012,-95.6315789473684,4184,4336,273.18947368421,34.2210526315789,4379,3908,15.2421052631579,111,0,1559,1775,484,4,4,4,4,4,4,4,4,4,4,4,4,4,4,4,4
"447",4309,46.0105263157895,4247,-200.136842105263,-339.736842105263,4015,-92.5578947368421,4187,4336,274.726315789474,31.1368421052632,4381,3909,19.8631578947368,112,0,1559,1775,454,4,4,4,4,4,4,4,4,4,4,4,4,4,4,4,4
"448",4318,48.0631578947368,4254,-199.115789473684,-324.357894736842,4011,-80.2526315789474,4188,4336,267.547368421053,32.1684210526316,4372,3910,15.7578947368421,113,0,1559,1775,471,4,4,4,4,4,4,4,4,4,4,4,4,4,4,4,4
"449",4316,43.4526315789474,4255,-204.242105263158,-322.305263157895,4006,-82.3052631578947,4178,4331,253.189473684211,32.6842105263158,4359,3914,-0.136842105263158,114,0,1559,1775,497,4,4,4,4,4,4,4,4,4,4,4,4,4,4,4,4
"450",4310,34.2210526315789,4253,-213.473684210526,-333.073684210526,3997,-95.6315789473684,4165,4318,235.757894736842,32.1684210526316,4348,3913,-11.9368421052632,115,0,1559,1775,484,4,4,4,4,4,4,4,4,4,4,4,4,4,4,4,4
"451",4318,41.9052631578947,4262,-211.936842105263,-328.968421052632,4001,-92.5578947368421,4169,4310,236.273684210526,22.4210526315789,4351,3909,-2.70526315789474,116,0,1555,1775,454,4,4,4,4,4,4,4,4,4,4,4,4,4,4,4,4
"452",4326,50.1157894736842,4269,-206.294736842105,-319.736842105263,4007,-83.3263157894737,4172,4307,239.347368421053,9.08421052631579,4355,3908,1.4,117,0,1559,1775,471,4,4,4,4,4,4,4,4,4,4,4,4,4,4,4,4
"453",4318,36.7789473684211,4264,-216.547368421053,-328.968421052632,3996,-88.9684210526316,4157,4308,228.063157894737,16.7789473684211,4339,3908,-17.0631578947368,118,0,1559,1771,497,4,4,4,4,4,4,4,4,4,4,4,4,4,4,4,4
"454",4306,24.4736842105263,4261,-228.347368421053,-340.768421052632,3985,-96.1473684210526,4147,4315,221.905263157895,31.6526315789474,4327,3908,-27.8315789473684,119,0,1555,1779,484,4,4,4,4,4,4,4,4,4,4,4,4,4,4,4,4
"455",4299,30.6315789473684,4262,-228.347368421053,-339.221052631579,3990,-94.0947368421053,4152,4320,227.547368421053,32.6842105263158,4337,3910,-18.0947368421053,120,0,1559,1775,454,4,4,4,4,4,4,4,4,4,4,4,4,4,4,4,4
"456",4295,28.5789473684211,4261,-229.884210526316,-341.273684210526,3991,-98.2,4148,4318,231.136842105263,29.6,4346,3903,-12.4526315789474,121,0,1555,1779,471,4,4,4,4,4,4,4,4,4,4,4,4,4,4,4,4
"457",4293,16.2736842105263,4260,-231.421052631579,337.810526315789,3985,-110.505263157895,4136,4320,231.136842105263,31.1368421052632,4342,3894,-16.5473684210526,122,0,1555,1775,497,4,4,4,4,4,4,4,4,4,4,4,4,4,4,4,4
"458",4288,14.7263157894737,4255,-231.936842105263,334.726315789474,3987,-111.021052631579,4131,4320,228.578947368421,31.6526315789474,4338,3894,-19.1157894736842,123,0,1555,1779,484,4,4,4,4,4,4,4,4,4,4,4,4,4,4,4,4
"459",4280,16.7789473684211,4249,-240.652631578947,336.273684210526,3987,-108.968421052632,4129,4306,219.347368421053,24.9894736842105,4335,3888,-21.1684210526316,124,0,1559,1775,454,4,4,4,4,4,4,4,4,4,4,4,4,4,4,4,4
"460",4279,17.2947368421053,4253,-241.168421052632,332.684210526316,3986,-115.126315789474,4133,4295,216.778947368421,16.7789473684211,4339,3878,-16.5473684210526,125,0,1555,1775,471,4,4,4,4,4,4,4,4,4,4,4,4,4,4,4,4
"461",4287,19.3473684210526,4263,-230.915789473684,329.6,3990,-120.768421052632,4137,4296,221.905263157895,11.1368421052632,4345,3884,-11.9368421052632,126,0,1559,1775,497,4,4,4,4,4,4,4,4,4,4,4,4,4,4,4,4
"462",4290,19.8631578947368,4267,-233.473684210526,335.757894736842,3988,-117.684210526316,4131,4292,218.831578947368,4.98947368421053,4335,3894,-23.7263157894737,127,0,1559,1771,484,4,4,4,4,4,4,4,4,4,4,4,4,4,4,4,4
"463",4284,15.2421052631579,4266,-245.273684210526,334.726315789474,3976,-113.073684210526,4120,4282,207.547368421053,3.45263157894737,4317,3893,-36.5473684210526,128,0,1555,1775,454,4,4,4,4,4,4,4,4,4,4,4,4,4,4,4,4
"464",4280,8.57894736842105,4266,-250.4,322.936842105263,3967,-116.663157894737,4117,4279,203.452631578947,8.06315789473684,4313,3892,-33.9894736842105,0,0,1563,1771,476,4,4,4,4,4,4,4,4,4,4,4,4,4,4,4,4
"465",4277,-1.68421052631579,4263,-256.042105263158,317.810526315789,3957,-126.915789473684,4110,4278,198.315789473684,6.52631578947368,4313,3893,-39.6315789473684,1,0,1555,1775,443,4,4,4,4,4,4,4,4,4,4,4,4,4,4,4,4
"466",4247,-36.5473684210526,4233,-287.831578947368,296.273684210526,3923,-151.021052631579,4076,4254,163.452631578947,-20.6526315789474,4274,3874,-84.2421052631579,2,0,1559,1771,487,4,4,4,4,4,4,4,4,4,4,4,4,4,4,4,4
"467",4214,-76.0421052631579,4201,-324.242105263158,263.957894736842,3883,-177.684210526316,4035,4224,120.884210526316,-46.8105263157895,4226,3847,-130.4,3,0,1559,1775,498,4,4,4,4,4,4,4,4,4,4,4,4,4,4,4,4
"468",4257,-38.6,4242,-286.810526315789,300.368421052632,3923,-143.842105263158,4073,4268,160.368421052632,-0.652631578947368,4270,3881,-83.7263157894737,4,0,1563,1775,492,4,4,4,4,4,4,4,4,4,4,4,4,4,4,4,4
"469",4236,-56.0421052631579,4224,-305.273684210526,281.905263157895,3905,-161.273684210526,4064,4263,155.242105263158,-15.5263157894737,4264,3864,-92.4526315789474,5,0,1559,1775,498,4,4,4,4,4,4,4,4,4,4,4,4,4,4,4,4
"470",4184,-113.989473684211,4176,330.736842105263,234.221052631579,3845,-206.915789473684,4013,4228,102.421052631579,-62.1894736842105,4199,3823,-156.547368421053,6,0,1563,1775,493,4,4,4,4,4,4,4,4,4,4,4,4,4,4,4,4
"471",4547,254.221052631579,4514,8.57894736842105,-107.431578947368,4222,107.957894736842,4377,4557,-251.021052631579,284.473684210526,4570,4135,215.242105263158,7,0,1559,1775,406,4,4,4,4,4,4,4,4,4,4,4,4,4,4,4,4
"472",5161,212.568421052632,5081,-42.8105263157895,-216.252631578947,4886,-46.5157894736842,5022,5088,-332.157894736842,180.778947368421,5251,4654,199.231578947368,8,0,1559,1775,446,4,4,4,4,4,4,4,4,4,4,4,4,4,4,4,4
"473",5365,-255.747368421053,5256,174.105263157895,-37.8,5117,127.336842105263,5247,5239,-112.663157894737,-320.357894736842,5501,4814,-253.178947368421,9,0,1559,1775,450,4,4,4,4,4,4,4,4,4,4,4,4,4,4,4,4
"474",5242,300.263157894737,5136,45.9052631578947,-161.389473684211,4985,17.0736842105263,5121,5117,-235.231578947368,248.463157894737,5371,4704,303.852631578947,10,0,1555,1779,491,4,4,4,4,4,4,4,4,4,4,4,4,4,4,4,4
"475",5243,298.210526315789,5143,44.8736842105263,-160.873684210526,4987,19.6421052631579,5124,5119,-232.157894736842,244.368421052632,5374,4707,314.621052631579,11,0,1555,1775,482,4,4,4,4,4,4,4,4,4,4,4,4,4,4,4,4
"476",5273,337.694736842105,5173,81.2842105263158,-136.768421052632,5029,47.8421052631579,5170,5139,-188.052631578947,264.368421052632,5423,4729,-321.389473684211,12,0,1555,1779,451,4,4,4,4,4,4,4,4,4,4,4,4,4,4,4,4
"477",5208,267.442105263158,5115,10.5157894736842,-197.8,4954,-6.51578947368421,5100,5072,-260.873684210526,203.336842105263,5338,4669,285.905263157895,13,0,1559,1775,466,4,4,4,4,4,4,4,4,4,4,4,4,4,4,4,4
"478",5179,228.463157894737,5097,-28.4526315789474,-220.357894736842,4910,-28.5684210526316,5053,5047,-309.073684210526,180.778947368421,5279,4649,227.442105263158,14,0,1551,1779,491,4,4,4,4,4,4,4,4,4,4,4,4,4,4,4,4
"479",5171,216.157894736842,5094,-37.6842105263158,-230.105263157895,4895,-36.7684210526316,5038,5044,-326,174.105263157895,5259,4641,205.905263157895,15,0,1559,1779,482,4,4,4,4,4,4,4,4,4,4,4,4,4,4,4,4
"480",5151,198.726315789474,5079,-54.0947368421053,-251.126315789474,4876,-52.1578947368421,5015,5034,-344.463157894737,164.368421052632,5239,4619,191.031578947368,16,0,1555,1775,0,4,4,4,4,4,4,4,4,4,4,4,4,4,4,4,4
"481",5133,182.831578947368,5069,-73.5789473684211,-264.463157894737,4858,-64.4631578947368,4984,5028,337.18947368421,155.136842105263,5228,4608,189.494736842105,17,0,1555,1779,0,4,4,4,4,4,4,4,4,4,4,4,4,4,4,4,4
"482",5112,162.831578947368,5056,-92.5578947368421,-281.389473684211,4836,-78.821052631579,4953,5023,327.957894736842,142.315789473684,5218,4598,172.568421052632,18,0,1559,1779,0,4,4,4,4,4,4,4,4,4,4,4,4,4,4,4,4
"483",5101,157.189473684211,5053,-96.6631578947368,-296.768421052632,4829,-84.4631578947368,4945,5019,324.368421052632,138.210526315789,5212,4590,155.642105263158,19,0,1555,1779,0,4,4,4,4,4,4,4,4,4,4,4,4,4,4,4,4
"484",5096,154.105263157895,5056,-102.305263157895,-310.105263157895,4820,-89.0736842105263,4942,5008,320.778947368421,127.442105263158,5203,4583,151.547368421053,20,0,1555,1779,0,4,4,4,4,4,4,4,4,4,4,4,4,4,4,4,4
"485",5091,145.389473684211,5055,-108.968421052632,-319.842105263158,4807,-96.2526315789474,4938,4997,314.621052631579,108.463157894737,5196,4576,150.515789473684,21,0,1555,1775,0,4,4,4,4,4,4,4,4,4,4,4,4,4,4,4,4
"486",5074,127.957894736842,5044,-123.842105263158,-333.694736842105,4785,-109.589473684211,4923,4983,292.052631578947,90.5157894736842,5173,4559,119.747368421053,22,0,1559,1771,0,4,4,4,4,4,4,4,4,4,4,4,4,4,4,4,4
"487",5053,105.905263157895,5038,-148.968421052632,342.315789473684,4758,-123.431578947368,4891,4959,264.368421052632,73.0842105263158,5137,4544,81.2842105263158,23,0,1559,1775,0,4,4,4,4,4,4,4,4,4,4,4,4,4,4,4,4
"488",5043,88.4631578947368,5035,-166.915789473684,330.515789473684,4736,-132.157894736842,4874,4941,249.494736842105,57.6947368421053,5121,4535,74.1052631578947,24,0,1559,1775,0,4,4,4,4,4,4,4,4,4,4,4,4,4,4,4,4
"489",5035,79.7473684210526,5029,-172.557894736842,321.284210526316,4722,-140.357894736842,4873,4933,241.8,43.8526315789474,5116,4526,73.0842105263158,25,0,1559,1775,0,4,4,4,4,4,4,4,4,4,4,4,4,4,4,4,4
"490",5028,78.2105263157895,5030,-175.631578947368,319.747368421053,4718,-147.536842105263,4872,4925,233.6,33.6,5109,4516,61.2842105263158,26,0,1555,1775,0,4,4,4,4,4,4,4,4,4,4,4,4,4,4,4,4
"491",5022,67.9578947368421,5034,-186.915789473684,316.157894736842,4708,-152.157894736842,4860,4917,217.694736842105,27.9578947368421,5092,4510,42.8315789473684,27,0,1559,1775,0,4,4,4,4,4,4,4,4,4,4,4,4,4,4,4,4
"492",5008,40.7789473684211,5021,-206.915789473684,299.231578947368,4675,-163.947368421053,4830,4905,194.105263157895,18.7263157894737,5062,4503,14.1052631578947,28,0,1559,1771,0,4,4,4,4,4,4,4,4,4,4,4,4,4,4,4,4
"493",4987,16.1578947368421,5008,-228.452631578947,281.8,4643,-180.357894736842,4806,4894,174.621052631579,4.87368421052632,5033,4490,-11.5368421052632,29,0,1555,1775,0,4,4,4,4,4,4,4,4,4,4,4,4,4,4,4,4
"494",4972,10.5157894736842,5008,-238.2,272.052631578947,4641,-188.052631578947,4810,4891,179.747368421053,-3.32631578947368,5043,4477,-0.252631578947368,30,0,1563,1775,0,4,4,4,4,4,4,4,4,4,4,4,4,4,4,4,4
"495",4959,3.33684210526316,5005,-248.452631578947,258.726315789474,4637,-195.747368421053,4807,4884,179.747368421053,-10.5052631578947,5048,4472,0.778947368421053,31,0,1559,1775,0,4,4,4,4,4,4,4,4,4,4,4,4,4,4,4,4
"496",4942,-22.3052631578947,4998,-273.578947368421,248.978947368421,4606,-206.515789473684,4769,4873,147.957894736842,-19.2210526315789,5004,4463,-51.5368421052632,32,0,1559,1775,0,4,4,4,4,4,4,4,4,4,4,4,4,4,4,4,4
"497",4932,-42.8105263157895,4996,-293.578947368421,245.389473684211,4580,-213.178947368421,4745,4868,127.442105263158,-27.9473684210526,4973,4450,-81.7894736842105,33,0,1559,1775,0,4,4,4,4,4,4,4,4,4,4,4,4,4,4,4,4
"498",4921,-47.4315789473684,4988,-301.789473684211,232.052631578947,4574,-224.463157894737,4746,4858,131.547368421053,-43.3263157894737,4984,4439,-65.3789473684211,34,0,1563,1775,0,4,4,4,4,4,4,4,4,4,4,4,4,4,4,4,4
"499",4899,-62.3052631578947,4976,-321.789473684211,209.494736842105,4561,-246,4732,4835,119.747368421053,-66.9157894736842,4974,4421,-74.0947368421053,35,0,1555,1775,0,4,4,4,4,4,4,4,4,4,4,4,4,4,4,4,4
"500",4878,-93.0736842105263,4963,337.810526315789,192.568421052632,4530,-260.873684210526,4703,4815,86.4210526315789,-86.9157894736842,4930,4403,-119.736842105263,36,0,1559,1775,0,4,4,4,4,4,4,4,4,4,4,4,4,4,4,4,4
"501",4866,-114.610526315789,4953,317.294736842105,181.8,4503,-267.536842105263,4683,4808,63.8526315789474,-95.1263157894737,4901,4397,-151.536842105263,37,0,1559,1771,0,4,4,4,4,4,4,4,4,4,4,4,4,4,4,4,4
"502",4854,-123.842105263158,4951,308.063157894737,170.515789473684,4492,-275.231578947368,4675,4803,58.2105263157895,-97.6842105263158,4893,4390,-155.631578947368,38,0,1555,1775,0,4,4,4,4,4,4,4,4,4,4,4,4,4,4,4,4
"503",4839,-134.610526315789,4948,298.315789473684,159.747368421053,4487,-283.431578947368,4667,4789,48.9789473684211,-113.073684210526,4889,4378,-154.610526315789,39,0,1559,1767,0,4,4,4,4,4,4,4,4,4,4,4,4,4,4,4,4
"504",4841,-135.126315789474,4952,299.863157894737,161.8,4486,-282.926315789474,4669,4782,44.3684210526316,-120.252631578947,4888,4379,-153.578947368421,40,0,1555,1771,0,4,4,4,4,4,4,4,4,4,4,4,4,4,4,4,4
"505",4866,-111.536842105263,4979,321.4,183.336842105263,4502,-263.947368421053,4690,4807,64.8736842105263,-90.5052631578947,4904,4400,-141.789473684211,41,0,1559,1771,0,4,4,4,4,4,4,4,4,4,4,4,4,4,4,4,4
"506",4883,-91.0210526315789,5001,339.347368421053,200.263157894737,4523,-244.978947368421,4713,4833,90.5157894736842,-58.7157894736842,4922,4423,-126.4,42,0,1555,1771,0,4,4,4,4,4,4,4,4,4,4,4,4,4,4,4,4
"507",4870,-100.768421052632,4992,332.168421052632,189.494736842105,4518,-252.157894736842,4707,4827,89.4947368421053,-66.9157894736842,4918,4419,-127.947368421053,43,0,1559,1771,0,4,4,4,4,4,4,4,4,4,4,4,4,4,4,4,4
"508",4861,-115.631578947368,4983,320.884210526316,177.189473684211,4505,-263.431578947368,4694,4823,84.3684210526316,-81.7894736842105,4914,4406,-128.452631578947,44,0,1555,1771,0,4,4,4,4,4,4,4,4,4,4,4,4,4,4,4,4
"509",4859,-119.736842105263,4989,317.294736842105,178.210526315789,4503,-263.431578947368,4698,4833,89.4947368421053,-76.1473684210526,4921,4404,-124.357894736842,45,0,1559,1775,0,4,4,4,4,4,4,4,4,4,4,4,4,4,4,4,4
"510",4834,-146.915789473684,4974,289.6,160.263157894737,4475,-279.336842105263,4677,4812,64.3684210526316,-87.9473684210526,4891,4387,-153.578947368421,46,0,1555,1767,0,4,4,4,4,4,4,4,4,4,4,4,4,4,4,4,4
"511",4853,-129.484210526316,4989,302.936842105263,175.642105263158,4490,-262.926315789474,4689,4818,70.5157894736842,-78.2,4896,4399,-141.273684210526,47,0,1555,1775,0,4,4,4,4,4,4,4,4,4,4,4,4,4,4,4,4
"512",4973,-4.35789473684211,5096,-261.789473684211,282.315789473684,4617,-160.873684210526,4815,4916,183.852631578947,15.6421052631579,5027,4496,-12.0421052631579,48,0,1559,1771,0,4,4,4,4,4,4,4,4,4,4,4,4,4,4,4,4
"513",5074,103.852631578947,5194,-155.126315789474,-311.126315789474,4724,-70.6210526315789,4929,5000,285.905263157895,105.905263157895,5145,4585,95.6421052631579,49,0,1555,1771,0,4,4,4,4,4,4,4,4,4,4,4,4,4,4,4,4
"514",5074,103.852631578947,5198,-158.715789473684,-308.052631578947,4722,-67.0210526315789,4926,4993,288.463157894737,104.368421052632,5141,4582,92.0526315789474,50,0,1559,1771,0,4,4,4,4,4,4,4,4,4,4,4,4,4,4,4,4
"515",5054,84.8736842105263,5179,-182.810526315789,-330.105263157895,4704,-82.4105263157895,4904,4969,268.463157894737,79.7473684210526,5116,4555,72.0526315789474,51,0,1555,1775,0,4,4,4,4,4,4,4,4,4,4,4,4,4,4,4,4
"516",5056,88.978947368421,5181,-175.126315789474,-329.073684210526,4711,-80.3578947368421,4917,4969,270.010526315789,83.8526315789474,5124,4562,82.3157894736842,52,0,1559,1771,0,4,4,4,4,4,4,4,4,4,4,4,4,4,4,4,4
"517",5044,74.6210526315789,5173,-186.4,-340.357894736842,4694,-91.1263157894737,4909,4967,262.831578947368,84.8736842105263,5115,4563,72.0526315789474,53,0,1555,1771,0,4,4,4,4,4,4,4,4,4,4,4,4,4,4,4,4
"518",5022,55.6421052631579,5162,-207.431578947368,330.515789473684,4672,-106,4885,4968,257.18947368421,77.6947368421053,5099,4546,53.6,54,0,1563,1775,0,4,4,4,4,4,4,4,4,4,4,4,4,4,4,4,4
"519",5009,47.9578947368421,5153,-211.021052631579,320.778947368421,4668,-114.210526315789,4879,4969,256.673684210526,72.0526315789474,5094,4537,50.0105263157895,55,0,1559,1767,0,4,4,4,4,4,4,4,4,4,4,4,4,4,4,4,4
"520",4996,32.5684210526316,5146,-221.273684210526,310.515789473684,4656,-123.947368421053,4876,4959,243.336842105263,63.3368421052632,5077,4534,38.2105263157895,56,0,1555,1771,0,4,4,4,4,4,4,4,4,4,4,4,4,4,4,4,4
"521",4994,21.8,5148,-235.126315789474,305.905263157895,4638,-126.515789473684,4866,4953,233.084210526316,53.6,5063,4522,21.8,57,0,1563,1771,0,4,4,4,4,4,4,4,4,4,4,4,4,4,4,4,4
"522",4993,15.1368421052632,5145,-244.357894736842,302.831578947368,4628,-130.105263157895,4852,4944,225.389473684211,38.7263157894737,5057,4509,11.0315789473684,58,0,1559,1771,0,4,4,4,4,4,4,4,4,4,4,4,4,4,4,4,4
"523",4983,-2.81052631578947,5134,-252.557894736842,293.6,4622,-142.926315789474,4843,4925,214.621052631579,24.3684210526316,5045,4504,3.33684210526316,59,0,1559,1771,0,4,4,4,4,4,4,4,4,4,4,4,4,4,4,4,4
"524",4968,-30.5052631578947,5125,-267.947368421053,278.210526315789,4604,-156.252631578947,4816,4909,199.231578947368,11.5473684210526,5025,4497,-13.5789473684211,60,0,1559,1775,0,4,4,4,4,4,4,4,4,4,4,4,4,4,4,4,4
"525",4956,-52.5578947368421,5112,-287.947368421053,264.368421052632,4583,-164.978947368421,4767,4897,178.726315789474,2.83157894736842,5004,4488,-37.6842105263158,61,0,1559,1771,0,4,4,4,4,4,4,4,4,4,4,4,4,4,4,4,4
"526",4945,-64.3578947368421,5102,-295.126315789474,258.210526315789,4573,-172.663157894737,4733,4890,165.389473684211,-3.32631578947368,4987,4481,-56.6631578947368,62,0,1559,1775,0,4,4,4,4,4,4,4,4,4,4,4,4,4,4,4,4
"527",4939,-67.4315789473684,5101,-295.631578947368,254.105263157895,4568,-177.284210526316,4729,4886,158.210526315789,-14.6105263157895,4970,4469,-64.3578947368421,63,0,1559,1775,0,4,4,4,4,4,4,4,4,4,4,4,4,4,4,4,4
"528",4939,-61.7894736842105,5102,-296.663157894737,249.494736842105,4573,-180.357894736842,4738,4875,156.673684210526,-29.4842105263158,4972,4462,-49.9894736842105,64,0,1563,1775,465,4,4,4,4,4,4,4,4,4,4,4,4,4,4,4,4
"529",4933,-65.8947368421053,5095,-305.894736842105,239.747368421053,4574,-187.021052631579,4736,4858,156.673684210526,-37.6842105263158,4976,4461,-42.3052631578947,65,0,1559,1771,430,4,4,4,4,4,4,4,4,4,4,4,4,4,4,4,4
"530",4918,-89.9894736842105,5083,-328.968421052632,226.926315789474,4547,-194.715789473684,4709,4849,144.368421052632,-43.8421052631579,4950,4452,-74.6105263157895,66,0,1563,1779,482,4,4,4,4,4,4,4,4,4,4,4,4,4,4,4,4
"531",4903,-113.073684210526,5072,338.831578947368,214.621052631579,4513,-202.926315789474,4679,4848,121.284210526316,-54.0947368421053,4916,4438,-112.557894736842,67,0,1563,1771,484,4,4,4,4,4,4,4,4,4,4,4,4,4,4,4,4
"532",4894,-121.273684210526,5068,328.063157894737,204.368421052632,4503,-212.663157894737,4676,4846,108.463157894737,-62.3052631578947,4908,4429,-116.147368421053,68,0,1555,1779,491,4,4,4,4,4,4,4,4,4,4,4,4,4,4,4,4
"533",4891,-119.221052631579,5067,323.957894736842,197.694736842105,4508,-220.357894736842,4683,4847,113.084210526316,-64.3578947368421,4913,4418,-106.4,69,0,1559,1775,494,4,4,4,4,4,4,4,4,4,4,4,4,4,4,4,4
"534",4885,-120.252631578947,5063,319.347368421053,188.463157894737,4507,-227.536842105263,4674,4842,112.568421052632,-67.9473684210526,4908,4407,-113.073684210526,70,0,1559,1775,485,4,4,4,4,4,4,4,4,4,4,4,4,4,4,4,4
"535",4876,-124.863157894737,5057,316.273684210526,181.8,4501,-232.663157894737,4668,4831,102.831578947368,-76.1473684210526,4898,4408,-125.378947368421,71,0,1559,1775,404,4,4,4,4,4,4,4,4,4,4,4,4,4,4,4,4
"536",4877,-126.4,5059,311.652631578947,180.263157894737,4498,-233.178947368421,4665,4826,98.2105263157895,-83.8421052631579,4893,4411,-129.484210526316,72,0,1555,1775,445,4,4,4,4,4,4,4,4,4,4,4,4,4,4,4,4
"537",4874,-130.505263157895,5057,299.863157894737,175.642105263158,4490,-237.284210526316,4637,4817,87.4421052631579,-92.0421052631579,4879,4400,-139.221052631579,73,0,1559,1775,450,4,4,4,4,4,4,4,4,4,4,4,4,4,4,4,4
"538",4861,-144.357894736842,5046,286.010526315789,165.905263157895,4474,-247.536842105263,4602,4798,63.3368421052632,-105.894736842105,4862,4388,-158.2,74,0,1555,1775,491,4,4,4,4,4,4,4,4,4,4,4,4,4,4,4,4
"539",4851,-156.147368421053,5039,274.726315789474,159.747368421053,4458,-254.210526315789,4591,4792,47.9578947368421,-117.684210526316,4853,4383,-168.968421052632,75,0,1559,1775,480,4,4,4,4,4,4,4,4,4,4,4,4,4,4,4,4
"540",4844,-162.810526315789,5035,265.494736842105,154.621052631579,4443,-259.336842105263,4590,4795,50.0105263157895,-123.842105263158,4846,4380,-172.557894736842,76,0,1559,1771,449,4,4,4,4,4,4,4,4,4,4,4,4,4,4,4,4
"541",4827,-176.663157894737,5023,254.221052631579,138.210526315789,4424,-276.252631578947,4579,4786,46.4210526315789,-122.305263157895,4832,4374,-184.863157894737,77,0,1555,1775,466,4,4,4,4,4,4,4,4,4,4,4,4,4,4,4,4
"542",4813,-185.378947368421,5015,245.494736842105,122.831578947368,4411,-291.126315789474,4570,4779,34.6210526315789,-122.810526315789,4819,4366,-199.736842105263,78,0,1559,1771,491,4,4,4,4,4,4,4,4,4,4,4,4,4,4,4,4
"543",4812,-181.789473684211,5017,246.010526315789,121.8,4412,-292.157894736842,4572,4784,31.5473684210526,-138.2,4816,4350,-203.842105263158,79,0,1559,1771,480,4,4,4,4,4,4,4,4,4,4,4,4,4,4,4,4
"544",4806,-185.378947368421,5010,243.957894736842,115.642105263158,4412,-299.336842105263,4573,4778,32.5684210526316,-149.989473684211,4814,4341,-203.326315789474,80,0,1559,1771,449,4,4,4,4,4,4,4,4,4,4,4,4,4,4,4,4
"545",4789,-198.715789473684,4997,228.578947368421,97.6947368421053,4400,-315.231578947368,4569,4767,24.8736842105263,-150.505263157895,4805,4343,-212.042105263158,81,0,1555,1775,466,4,4,4,4,4,4,4,4,4,4,4,4,4,4,4,4
"546",4780,-206.915789473684,4995,217.294736842105,90.5157894736842,4392,-321.389473684211,4566,4764,16.6736842105263,-162.305263157895,4795,4335,-221.789473684211,82,0,1559,1771,491,4,4,4,4,4,4,4,4,4,4,4,4,4,4,4,4
"547",4786,-207.431578947368,4997,219.347368421053,94.1052631578947,4387,-320.873684210526,4566,4755,12.5684210526316,-174.610526315789,4795,4324,-222.810526315789,83,0,1551,1771,480,4,4,4,4,4,4,4,4,4,4,4,4,4,4,4,4
"548",4783,-215.126315789474,4992,210.631578947368,91.5473684210526,4373,-322.410526315789,4554,4739,-3.32631578947368,-172.557894736842,4784,4327,-232.557894736842,84,0,1551,1775,449,4,4,4,4,4,4,4,4,4,4,4,4,4,4,4,4
"549",4771,-226.4,4984,190.631578947368,87.4421052631579,4367,-327.021052631579,4541,4732,-21.2736842105263,-181.273684210526,4764,4325,-250.505263157895,85,0,1547,1771,466,4,4,4,4,4,4,4,4,4,4,4,4,4,4,4,4
"550",4767,-227.431578947368,4979,185.494736842105,87.4421052631579,4374,-330.621052631579,4550,4729,-19.7368421052632,-196.663157894737,4765,4310,-248.968421052632,86,0,1543,1775,491,4,4,4,4,4,4,4,4,4,4,4,4,4,4,4,4
"551",4765,-223.842105263158,4974,186.010526315789,84.3684210526316,4370,-334.715789473684,4557,4719,-20.2526315789474,-200.252631578947,4769,4305,-243.842105263158,87,0,1547,1771,480,4,4,4,4,4,4,4,4,4,4,4,4,4,4,4,4
"552",4752,-234.610526315789,4968,172.684210526316,77.1894736842105,4348,-340.357894736842,4542,4707,-43.3263157894737,-203.326315789474,4749,4306,-258.715789473684,88,0,1543,1775,449,4,4,4,4,4,4,4,4,4,4,4,4,4,4,4,4
"553",4734,-253.073684210526,4961,155.242105263158,64.8736842105263,4330,338.210526315789,4522,4699,-64.8631578947368,-213.073684210526,4728,4293,-279.736842105263,89,0,1539,1775,466,4,4,4,4,4,4,4,4,4,4,4,4,4,4,4,4
"554",4718,-263.842105263158,4952,145.494736842105,51.5473684210526,4317,325.389473684211,4510,4699,-65.3789473684211,-220.252631578947,4715,4282,-304.357894736842,90,0,1539,1779,491,4,4,4,4,4,4,4,4,4,4,4,4,4,4,4,4
"555",4704,-273.073684210526,4943,137.294736842105,41.2842105263158,4302,316.673684210526,4498,4697,-63.3263157894737,-224.357894736842,4705,4276,-320.252631578947,91,0,1543,1775,480,4,4,4,4,4,4,4,4,4,4,4,4,4,4,4,4
"556",4697,-280.252631578947,4938,131.136842105263,35.1368421052632,4296,311.547368421053,4493,4690,-73.5789473684211,-226.4,4703,4269,-314.610526315789,92,0,1535,1775,449,4,4,4,4,4,4,4,4,4,4,4,4,4,4,4,4
"557",4693,-283.842105263158,4938,124.473684210526,30.0105263157895,4296,305.389473684211,4494,4687,-53.0736842105263,-226.915789473684,4703,4263,-313.073684210526,93,0,1543,1779,466,4,4,4,4,4,4,4,4,4,4,4,4,4,4,4,4
"558",4683,-293.578947368421,4936,115.242105263158,21.2842105263158,4285,294.621052631579,4484,4689,8.46315789473684,-237.684210526316,4698,4254,-328.452631578947,94,0,1543,1775,491,4,4,4,4,4,4,4,4,4,4,4,4,4,4,4,4
"559",4677,-303.842105263158,4936,108.063157894737,15.1368421052632,4271,290.010526315789,4474,4673,47.4421052631579,-252.557894736842,4688,4250,-337.168421052632,95,0,1543,1779,480,4,4,4,4,4,4,4,4,4,4,4,4,4,4,4,4
"560",4677,-307.431578947368,4937,100.884210526316,17.1894736842105,4266,289.494736842105,4472,4653,32.5684210526316,-260.768421052632,4680,4249,-338.715789473684,96,0,1547,1775,449,4,4,4,4,4,4,4,4,4,4,4,4,4,4,4,4
"561",4667,-318.715789473684,4933,83.9578947368421,14.1052631578947,4255,280.263157894737,4461,4649,-7.94736842105263,-272.042105263158,4667,4243,340.884210526316,97,0,1551,1775,466,4,4,4,4,4,4,4,4,4,4,4,4,4,4,4,4
"562",4646,341.4,4919,57.8105263157895,-3.84210526315789,4227,266.421052631579,4440,4641,-51.5368421052632,-284.863157894737,4644,4230,317.294736842105,98,0,1551,1775,491,4,4,4,4,4,4,4,4,4,4,4,4,4,4,4,4
"563",4629,313.705263157895,4900,35.2421052631579,-22.3052631578947,4199,253.084210526316,4422,4617,-87.9473684210526,-294.094736842105,4617,4221,290.115789473684,99,0,1555,1775,480,4,4,4,4,4,4,4,4,4,4,4,4,4,4,4,4
"564",4616,299.863157894737,4885,22.9368421052632,-34.0947368421053,4183,241.284210526316,4409,4607,-103.326315789474,-306.915789473684,4600,4215,271.652631578947,100,0,1555,1775,449,4,4,4,4,4,4,4,4,4,4,4,4,4,4,4,4
"565",4609,295.242105263158,4884,20.3684210526316,-40.7684210526316,4175,236.157894736842,4409,4611,-105.894736842105,-313.073684210526,4599,4210,264.473684210526,101,0,1559,1771,466,4,4,4,4,4,4,4,4,4,4,4,4,4,4,4,4
"566",4616,301.4,4890,29.0842105263158,-34.6105263157895,4184,242.315789473684,4428,4613,-97.1684210526316,-312.042105263158,4611,4207,275.757894736842,102,0,1559,1775,491,4,4,4,4,4,4,4,4,4,4,4,4,4,4,4,4
"567",4615,293.18947368421,4884,24.9894736842105,-36.6631578947368,4178,237.189473684211,4426,4606,-98.7157894736842,-322.305263157895,4606,4197,284.989473684211,103,0,1567,1775,480,4,4,4,4,4,4,4,4,4,4,4,4,4,4,4,4
"568",4611,280.884210526316,4881,22.4210526315789,-41.2736842105263,4163,235.136842105263,4416,4608,-106.915789473684,-319.736842105263,4596,4198,277.294736842105,104,0,1563,1771,449,4,4,4,4,4,4,4,4,4,4,4,4,4,4,4,4
